EEG1,EEG2,Acc_X,Acc_Y,Acc_Z
812.6203002929688,769.850830078125,62.5000991821289,1011.7203369140624,140.62521362304688
812.6203002929688,764.9158325195312,62.5000991821289,1011.7203369140624,140.62521362304688
809.330322265625,778.07568359375,62.5000991821289,1011.7203369140624,140.62521362304688
809.330322265625,753.4010009765625,62.5000991821289,1035.1578369140623,136.71896362304688
809.330322265625,769.850830078125,50.78133010864258,1027.3453369140623,144.53147888183594
809.330322265625,779.720703125,31.25004959106445,1007.8140869140624,144.53147888183594
809.330322265625,779.720703125,15.625024795532227,996.0953369140624,136.71896362304688
825.7801513671875,809.330322265625,31.25004959106445,980.4702758789062,117.18768310546876
825.7801513671875,812.6203002929688,31.25004959106445,996.0953369140624,125.0001983642578
815.9102783203125,789.590576171875,31.25004959106445,1000.0015869140624,152.343994140625
817.5552368164062,796.1704711914062,31.25004959106445,1000.0015869140624,152.343994140625
822.4901733398438,802.7504272460938,31.25004959106445,1000.0015869140624,152.343994140625
809.330322265625,783.0106201171875,15.625024795532227,1031.2515869140623,140.62521362304688
817.5552368164062,799.46044921875,15.625024795532227,1031.2515869140623,140.62521362304688
815.9102783203125,799.46044921875,54.687583923339844,1019.5328369140624,156.250244140625
815.9102783203125,799.46044921875,62.5000991821289,1011.7203369140624,175.78152465820312
822.4901733398438,796.1704711914062,62.5000991821289,1011.7203369140624,175.78152465820312
824.1351318359375,791.2355346679688,50.78133010864258,1046.8765869140623,167.96900939941406
817.5552368164062,781.3656616210938,50.78133010864258,1046.8765869140623,167.96900939941406
814.2652587890625,807.6853637695312,50.78133010864258,1046.8765869140623,167.96900939941406
820.84521484375,824.1351318359375,-62.5000991821289,996.0953369140624,203.1253204345703
820.84521484375,824.1351318359375,-11.718768119812012,1054.689208984375,207.0315704345703
820.84521484375,824.1351318359375,3.9062561988830566,1054.689208984375,218.75033569335938
815.9102783203125,819.2001953125,3.9062561988830566,1054.689208984375,218.75033569335938
814.2652587890625,819.2001953125,-35.15630340576172,996.0953369140624,175.78152465820312
817.5552368164062,820.84521484375,-35.15630340576172,996.0953369140624,175.78152465820312
817.5552368164062,794.5255126953125,-11.718768119812012,1000.0015869140624,191.40655517578125
819.2001953125,812.6203002929688,-19.531280517578125,984.3765258789062,191.40655517578125
819.2001953125,812.6203002929688,-15.625024795532227,1003.9078369140624,191.40655517578125
817.5552368164062,792.8805541992188,-15.625024795532227,1003.9078369140624,191.40655517578125
815.9102783203125,787.945556640625,-27.343791961669922,1015.6265869140624,203.1253204345703
814.2652587890625,797.8154907226562,-39.06256103515625,984.3765258789062,218.75033569335938
817.5552368164062,820.84521484375,-19.531280517578125,1023.4390869140624,195.31280517578125
817.5552368164062,810.9752807617188,-19.531280517578125,1023.4390869140624,195.31280517578125
809.330322265625,794.5255126953125,-11.718768119812012,1007.8140869140624,207.0315704345703
809.330322265625,794.5255126953125,0.0,1000.0015869140624,222.65660095214844
827.4251098632812,809.330322265625,-7.812512397766112,976.5640258789062,218.75033569335938
827.4251098632812,809.330322265625,-19.531280517578125,988.2827758789062,207.0315704345703
822.4901733398438,804.3953857421875,-23.437536239624023,980.4702758789062,199.21905517578125
819.2001953125,804.3953857421875,-23.437536239624023,980.4702758789062,199.21905517578125
812.6203002929688,809.330322265625,-3.9062561988830566,972.6577758789062,203.1253204345703
822.4901733398438,794.5255126953125,-3.9062561988830566,972.6577758789062,203.1253204345703
825.7801513671875,809.330322265625,27.343791961669922,1027.3453369140623,207.0315704345703
825.7801513671875,809.330322265625,35.15630340576172,1007.8140869140624,207.0315704345703
820.84521484375,812.6203002929688,35.15630340576172,1007.8140869140624,207.0315704345703
822.4901733398438,819.2001953125,15.625024795532227,996.0953369140624,207.0315704345703
822.4901733398438,819.2001953125,23.437536239624023,984.3765258789062,210.93783569335938
829.070068359375,807.6853637695312,23.437536239624023,984.3765258789062,210.93783569335938
820.84521484375,801.1054077148438,0.0,1003.9078369140624,203.1253204345703
822.4901733398438,819.2001953125,0.0,1003.9078369140624,203.1253204345703
819.2001953125,809.330322265625,0.0,1003.9078369140624,203.1253204345703
819.2001953125,809.330322265625,15.625024795532227,964.8452758789062,218.75033569335938
814.2652587890625,824.1351318359375,19.531280517578125,1000.0015869140624,199.21905517578125
812.6203002929688,806.0403442382812,19.531280517578125,1000.0015869140624,199.21905517578125
829.070068359375,866.9046630859375,50.78133010864258,1000.0015869140624,226.56285095214844
829.070068359375,908.0291748046876,50.78133010864258,1000.0015869140624,226.56285095214844
832.3600463867188,911.319091796875,50.78133010864258,1000.0015869140624,226.56285095214844
830.715087890625,929.4138793945312,39.06256103515625,968.7515258789062,226.56285095214844
827.4251098632812,950.7986450195312,39.06256103515625,968.7515258789062,226.56285095214844
812.6203002929688,960.6685180664062,58.59384155273438,1050.7828369140623,230.4691162109375
812.6203002929688,960.6685180664062,35.15630340576172,1058.595458984375,207.0315704345703
814.2652587890625,1047.8525390625,15.625024795532227,1035.1578369140623,203.1253204345703
829.070068359375,995.213134765625,19.531280517578125,980.4702758789062,199.21905517578125
837.2949829101562,986.9882202148438,-3.9062561988830566,976.5640258789062,183.5940399169922
829.070068359375,904.7391967773438,-42.96881866455078,1062.501708984375,183.5940399169922
834.0050048828125,898.1592407226562,-42.96881866455078,988.2827758789062,164.06275939941406
838.9400024414062,883.3544311523438,-42.96881866455078,988.2827758789062,164.06275939941406
837.2949829101562,881.70947265625,-58.59384155273438,1015.6265869140624,175.78152465820312
834.0050048828125,861.9697265625,-58.59384155273438,1015.6265869140624,175.78152465820312
822.4901733398438,796.1704711914062,-93.7501449584961,1003.9078369140624,136.71896362304688
822.4901733398438,796.1704711914062,-105.46891784667969,1003.9078369140624,132.81271362304688
829.070068359375,830.715087890625,-128.90644836425778,1007.8140869140624,117.18768310546876
832.3600463867188,842.2299194335938,-128.90644836425778,1007.8140869140624,117.18768310546876
819.2001953125,825.7801513671875,-128.90644836425778,1007.8140869140624,117.18768310546876
832.3600463867188,797.8154907226562,-101.56266021728516,1035.1578369140623,117.18768310546876
832.3600463867188,868.5496215820312,-101.56266021728516,1035.1578369140623,117.18768310546876
842.2299194335938,972.1834106445312,-140.62521362304688,980.4702758789062,78.1251220703125
810.9752807617188,1064.30224609375,-148.43772888183594,1023.4390869140624,74.21886444091797
838.9400024414062,1023.1777954101562,-136.71896362304688,1035.1578369140623,85.93763732910156
840.5849609375,1003.43798828125,-136.71896362304688,972.6577758789062,78.1251220703125
840.5849609375,1003.43798828125,-97.65640258789062,968.7515258789062,101.56266021728516
845.5198974609375,970.5383911132812,-175.78152465820312,1035.1578369140623,105.46891784667969
845.5198974609375,970.5383911132812,-187.5002899169922,1011.7203369140624,89.84388732910156
842.2299194335938,975.4733276367188,-187.5002899169922,1011.7203369140624,89.84388732910156
837.2949829101562,950.7986450195312,-140.62521362304688,1003.9078369140624,82.03137969970703
837.2949829101562,950.7986450195312,-132.81271362304688,1023.4390869140624,70.31260681152344
853.7448120117188,973.828369140625,-132.81271362304688,1023.4390869140624,70.31260681152344
838.9400024414062,929.4138793945312,-113.28142547607422,1011.7203369140624,70.31260681152344
835.6500244140625,922.833984375,-113.28142547607422,1011.7203369140624,70.31260681152344
835.6500244140625,922.833984375,-113.28142547607422,1003.9078369140624,70.31260681152344
838.9400024414062,909.6741333007812,-160.156494140625,964.8452758789062,50.78133010864258
838.9400024414062,909.6741333007812,-167.96900939941406,976.5640258789062,58.59384155273438
838.9400024414062,894.8693237304688,-167.96900939941406,980.4702758789062,66.40635681152344
840.5849609375,911.319091796875,-167.96900939941406,980.4702758789062,66.40635681152344
847.1648559570312,906.3841552734376,-125.0001983642578,1031.2515869140623,89.84388732910156
817.5552368164062,865.2596435546875,-125.0001983642578,1031.2515869140623,89.84388732910156
830.715087890625,858.6797485351562,-125.0001983642578,1031.2515869140623,89.84388732910156
830.715087890625,858.6797485351562,-54.687583923339844,1003.9078369140624,74.21886444091797
820.84521484375,850.454833984375,-54.687583923339844,1003.9078369140624,74.21886444091797
827.4251098632812,801.1054077148438,-15.625024795532227,1058.595458984375,109.37516784667969
817.5552368164062,763.2708740234375,-3.9062561988830566,1003.9078369140624,121.09394073486328
820.84521484375,763.2708740234375,-3.9062561988830566,1003.9078369140624,121.09394073486328
827.4251098632812,794.5255126953125,15.625024795532227,1011.7203369140624,109.37516784667969
827.4251098632812,794.5255126953125,-42.96881866455078,976.5640258789062,97.65640258789062
820.84521484375,776.4307250976562,-42.96881866455078,976.5640258789062,97.65640258789062
815.9102783203125,756.6909790039062,0.0,992.1890258789062,117.18768310546876
820.84521484375,758.3359375,31.25004959106445,1031.2515869140623,121.09394073486328
822.4901733398438,755.0459594726562,31.25004959106445,1031.2515869140623,121.09394073486328
822.4901733398438,755.0459594726562,19.531280517578125,992.1890258789062,93.7501449584961
822.4901733398438,764.9158325195312,11.718768119812012,1035.1578369140623,93.7501449584961
827.4251098632812,769.850830078125,39.06256103515625,1027.3453369140623,82.03137969970703
824.1351318359375,773.1407470703125,39.06256103515625,1027.3453369140623,82.03137969970703
809.330322265625,755.0459594726562,15.625024795532227,1031.2515869140623,93.7501449584961
809.330322265625,755.0459594726562,46.87507247924805,1023.4390869140624,109.37516784667969
809.330322265625,769.850830078125,0.0,1003.9078369140624,70.31260681152344
809.330322265625,769.850830078125,31.25004959106445,1007.8140869140624,82.03137969970703
825.7801513671875,776.4307250976562,31.25004959106445,1003.9078369140624,93.7501449584961
838.9400024414062,802.7504272460938,3.9062561988830566,1031.2515869140623,89.84388732910156
827.4251098632812,771.4957885742188,3.9062561988830566,1023.4390869140624,101.56266021728516
819.2001953125,766.5608520507812,3.9062561988830566,1023.4390869140624,101.56266021728516
824.1351318359375,779.720703125,3.9062561988830566,1023.4390869140624,101.56266021728516
820.84521484375,763.2708740234375,-3.9062561988830566,1027.3453369140623,121.09394073486328
825.7801513671875,759.9808959960938,-27.343791961669922,1000.0015869140624,121.09394073486328
825.7801513671875,759.9808959960938,-31.25004959106445,1011.7203369140624,125.0001983642578
825.7801513671875,769.850830078125,-31.25004959106445,1011.7203369140624,125.0001983642578
814.2652587890625,755.0459594726562,-35.15630340576172,1019.5328369140624,121.09394073486328
827.4251098632812,786.3005981445312,-11.718768119812012,1023.4390869140624,128.90644836425778
827.4251098632812,786.3005981445312,-15.625024795532227,1023.4390869140624,125.0001983642578
830.715087890625,796.1704711914062,-15.625024795532227,1023.4390869140624,125.0001983642578
829.070068359375,784.6556396484375,-15.625024795532227,1023.4390869140624,125.0001983642578
819.2001953125,774.7857666015625,-23.437536239624023,1003.9078369140624,128.90644836425778
825.7801513671875,784.6556396484375,0.0,1015.6265869140624,125.0001983642578
825.7801513671875,773.1407470703125,7.812512397766112,1003.9078369140624,125.0001983642578
827.4251098632812,774.7857666015625,-31.25004959106445,1011.7203369140624,136.71896362304688
820.84521484375,771.4957885742188,-31.25004959106445,1011.7203369140624,136.71896362304688
829.070068359375,799.46044921875,-11.718768119812012,1011.7203369140624,152.343994140625
820.84521484375,773.1407470703125,-11.718768119812012,1011.7203369140624,152.343994140625
824.1351318359375,786.3005981445312,-11.718768119812012,1023.4390869140624,140.62521362304688
824.1351318359375,786.3005981445312,-3.9062561988830566,1007.8140869140624,156.250244140625
824.1351318359375,779.720703125,-3.9062561988830566,1007.8140869140624,156.250244140625
824.1351318359375,799.46044921875,-19.531280517578125,1015.6265869140624,152.343994140625
824.1351318359375,799.46044921875,-15.625024795532227,1015.6265869140624,144.53147888183594
822.4901733398438,783.0106201171875,-15.625024795532227,1015.6265869140624,144.53147888183594
825.7801513671875,792.8805541992188,-15.625024795532227,1007.8140869140624,152.343994140625
829.070068359375,792.8805541992188,-15.625024795532227,1007.8140869140624,152.343994140625
822.4901733398438,779.720703125,3.9062561988830566,1015.6265869140624,148.43772888183594
822.4901733398438,779.720703125,3.9062561988830566,1035.1578369140623,136.71896362304688
829.070068359375,792.8805541992188,3.9062561988830566,1035.1578369140623,136.71896362304688
829.070068359375,792.8805541992188,7.812512397766112,1027.3453369140623,136.71896362304688
822.4901733398438,784.6556396484375,0.0,1023.4390869140624,132.81271362304688
830.715087890625,799.46044921875,-7.812512397766112,1031.2515869140623,128.90644836425778
830.715087890625,799.46044921875,11.718768119812012,1015.6265869140624,128.90644836425778
835.6500244140625,806.0403442382812,11.718768119812012,1015.6265869140624,128.90644836425778
824.1351318359375,791.2355346679688,11.718768119812012,1015.6265869140624,128.90644836425778
824.1351318359375,758.3359375,-23.437536239624023,1042.9703369140623,117.18768310546876
825.7801513671875,812.6203002929688,-27.343791961669922,1015.6265869140624,113.28142547607422
829.070068359375,817.5552368164062,-15.625024795532227,1035.1578369140623,105.46891784667969
822.4901733398438,792.8805541992188,-15.625024795532227,1035.1578369140623,105.46891784667969
829.070068359375,797.8154907226562,-35.15630340576172,1003.9078369140624,97.65640258789062
829.070068359375,797.8154907226562,-46.87507247924805,1007.8140869140624,89.84388732910156
840.5849609375,815.9102783203125,-50.78133010864258,1023.4390869140624,85.93763732910156
830.715087890625,806.0403442382812,-50.78133010864258,1023.4390869140624,85.93763732910156
824.1351318359375,797.8154907226562,-35.15630340576172,1003.9078369140624,93.7501449584961
830.715087890625,809.330322265625,-35.15630340576172,1003.9078369140624,93.7501449584961
830.715087890625,801.1054077148438,-54.687583923339844,996.0953369140624,85.93763732910156
827.4251098632812,784.6556396484375,-54.687583923339844,996.0953369140624,85.93763732910156
827.4251098632812,789.590576171875,-54.687583923339844,996.0953369140624,85.93763732910156
835.6500244140625,812.6203002929688,-62.5000991821289,1003.9078369140624,78.1251220703125
835.6500244140625,804.3953857421875,-58.59384155273438,976.5640258789062,82.03137969970703
835.6500244140625,804.3953857421875,-62.5000991821289,984.3765258789062,82.03137969970703
835.6500244140625,804.3953857421875,-66.40635681152344,992.1890258789062,89.84388732910156
840.5849609375,835.6500244140625,-62.5000991821289,1000.0015869140624,85.93763732910156
830.715087890625,815.9102783203125,-58.59384155273438,1007.8140869140624,93.7501449584961
830.715087890625,794.5255126953125,-31.25004959106445,1054.689208984375,89.84388732910156
840.5849609375,824.1351318359375,-31.25004959106445,1054.689208984375,89.84388732910156
834.0050048828125,802.7504272460938,-58.59384155273438,1023.4390869140624,89.84388732910156
825.7801513671875,784.6556396484375,-54.687583923339844,1003.9078369140624,93.7501449584961
825.7801513671875,802.7504272460938,-42.96881866455078,1027.3453369140623,97.65640258789062
825.7801513671875,802.7504272460938,-46.87507247924805,1015.6265869140624,93.7501449584961
830.715087890625,809.330322265625,-46.87507247924805,1015.6265869140624,93.7501449584961
832.3600463867188,812.6203002929688,-46.87507247924805,1015.6265869140624,93.7501449584961
825.7801513671875,812.6203002929688,-54.687583923339844,1015.6265869140624,109.37516784667969
835.6500244140625,830.715087890625,-54.687583923339844,1015.6265869140624,109.37516784667969
840.5849609375,815.9102783203125,-66.40635681152344,992.1890258789062,113.28142547607422
842.2299194335938,796.1704711914062,-66.40635681152344,992.1890258789062,113.28142547607422
822.4901733398438,822.4901733398438,-50.78133010864258,1023.4390869140624,101.56266021728516
822.4901733398438,822.4901733398438,-46.87507247924805,1023.4390869140624,105.46891784667969
820.84521484375,809.330322265625,-46.87507247924805,1023.4390869140624,105.46891784667969
824.1351318359375,802.7504272460938,-58.59384155273438,1003.9078369140624,121.09394073486328
824.1351318359375,802.7504272460938,-35.15630340576172,996.0953369140624,136.71896362304688
814.2652587890625,814.2652587890625,-35.15630340576172,996.0953369140624,136.71896362304688
835.6500244140625,812.6203002929688,-66.40635681152344,1019.5328369140624,136.71896362304688
827.4251098632812,809.330322265625,-66.40635681152344,1019.5328369140624,136.71896362304688
827.4251098632812,806.0403442382812,-66.40635681152344,1019.5328369140624,136.71896362304688
827.4251098632812,806.0403442382812,-23.437536239624023,1039.0640869140623,136.71896362304688
832.3600463867188,794.5255126953125,-50.78133010864258,1031.2515869140623,140.62521362304688
832.3600463867188,794.5255126953125,-42.96881866455078,1003.9078369140624,144.53147888183594
834.0050048828125,817.5552368164062,-42.96881866455078,1003.9078369140624,144.53147888183594
835.6500244140625,797.8154907226562,-42.96881866455078,1003.9078369140624,144.53147888183594
832.3600463867188,796.1704711914062,-50.78133010864258,996.0953369140624,160.156494140625
822.4901733398438,807.6853637695312,-50.78133010864258,996.0953369140624,160.156494140625
827.4251098632812,829.070068359375,-31.25004959106445,1027.3453369140623,148.43772888183594
819.2001953125,815.9102783203125,-66.40635681152344,1027.3453369140623,160.156494140625
822.4901733398438,815.9102783203125,-66.40635681152344,1027.3453369140623,160.156494140625
825.7801513671875,809.330322265625,-85.93763732910156,996.0953369140624,175.78152465820312
832.3600463867188,802.7504272460938,-85.93763732910156,1023.4390869140624,199.21905517578125
837.2949829101562,784.6556396484375,-70.31260681152344,972.6577758789062,230.4691162109375
838.9400024414062,802.7504272460938,-97.65640258789062,984.3765258789062,222.65660095214844
840.5849609375,806.0403442382812,-97.65640258789062,984.3765258789062,222.65660095214844
837.2949829101562,815.9102783203125,-70.31260681152344,1003.9078369140624,257.81289672851557
838.9400024414062,794.5255126953125,-70.31260681152344,1003.9078369140624,257.81289672851557
829.070068359375,784.6556396484375,-85.93763732910156,968.7515258789062,277.3441772460937
848.8098754882812,820.84521484375,-93.7501449584961,1003.9078369140624,304.68798828125
837.2949829101562,807.6853637695312,-46.87507247924805,1015.6265869140624,296.8754577636719
837.2949829101562,807.6853637695312,-97.65640258789062,980.4702758789062,300.7817077636719
837.2949829101562,807.6853637695312,-66.40635681152344,1015.6265869140624,316.40673828125
847.1648559570312,783.0106201171875,-66.40635681152344,1015.6265869140624,316.40673828125
848.8098754882812,787.945556640625,-85.93763732910156,1003.9078369140624,273.4379272460937
843.8749389648438,792.8805541992188,-85.93763732910156,1003.9078369140624,273.4379272460937
845.5198974609375,789.590576171875,-85.93763732910156,976.5640258789062,261.71914672851557
850.454833984375,797.8154907226562,-121.09394073486328,941.40771484375,242.18788146972656
842.2299194335938,791.2355346679688,-128.90644836425778,988.2827758789062,207.0315704345703
842.2299194335938,791.2355346679688,-109.37516784667969,1000.0015869140624,203.1253204345703
832.3600463867188,819.2001953125,-121.09394073486328,1007.8140869140624,183.5940399169922
832.3600463867188,819.2001953125,-140.62521362304688,972.6577758789062,171.87527465820312
825.7801513671875,804.3953857421875,-140.62521362304688,972.6577758789062,171.87527465820312
829.070068359375,838.9400024414062,-140.62521362304688,972.6577758789062,171.87527465820312
829.070068359375,827.4251098632812,-179.68777465820312,988.2827758789062,152.343994140625
815.9102783203125,809.330322265625,-156.250244140625,980.4702758789062,156.250244140625
830.715087890625,834.0050048828125,-144.53147888183594,1015.6265869140624,136.71896362304688
830.715087890625,830.715087890625,-148.43772888183594,1031.2515869140623,140.62521362304688
822.4901733398438,830.715087890625,-167.96900939941406,996.0953369140624,140.62521362304688
822.4901733398438,830.715087890625,-156.250244140625,988.2827758789062,140.62521362304688
819.2001953125,824.1351318359375,-156.250244140625,988.2827758789062,140.62521362304688
819.2001953125,814.2652587890625,-156.250244140625,988.2827758789062,140.62521362304688
834.0050048828125,838.9400024414062,-148.43772888183594,1011.7203369140624,132.81271362304688
824.1351318359375,829.070068359375,-148.43772888183594,1011.7203369140624,132.81271362304688
809.330322265625,827.4251098632812,-152.343994140625,1007.8140869140624,136.71896362304688
817.5552368164062,857.0347290039062,-160.156494140625,976.5640258789062,128.90644836425778
824.1351318359375,875.1295166015625,-152.343994140625,1003.9078369140624,140.62521362304688
824.1351318359375,875.1295166015625,-148.43772888183594,992.1890258789062,148.43772888183594
829.070068359375,853.7448120117188,-148.43772888183594,992.1890258789062,148.43772888183594
837.2949829101562,837.2949829101562,-152.343994140625,1003.9078369140624,140.62521362304688
837.2949829101562,829.070068359375,-152.343994140625,1003.9078369140624,140.62521362304688
832.3600463867188,810.9752807617188,-152.343994140625,1003.9078369140624,140.62521362304688
832.3600463867188,810.9752807617188,-132.81271362304688,996.0953369140624,175.78152465820312
830.715087890625,837.2949829101562,-132.81271362304688,996.0953369140624,175.78152465820312
830.715087890625,837.2949829101562,-156.250244140625,1031.2515869140623,164.06275939941406
827.4251098632812,829.070068359375,-136.71896362304688,1031.2515869140623,171.87527465820312
832.3600463867188,832.3600463867188,-136.71896362304688,1031.2515869140623,171.87527465820312
830.715087890625,819.2001953125,-187.5002899169922,1062.501708984375,156.250244140625
847.1648559570312,848.8098754882812,-199.21905517578125,968.7515258789062,128.90644836425778
843.8749389648438,842.2299194335938,-199.21905517578125,968.7515258789062,128.90644836425778
829.070068359375,810.9752807617188,-195.31280517578125,945.31396484375,160.156494140625
830.715087890625,814.2652587890625,-152.343994140625,984.3765258789062,160.156494140625
834.0050048828125,817.5552368164062,-152.343994140625,984.3765258789062,160.156494140625
847.1648559570312,830.715087890625,-152.343994140625,984.3765258789062,160.156494140625
847.1648559570312,830.715087890625,-179.68777465820312,1046.8765869140623,136.71896362304688
838.9400024414062,832.3600463867188,-148.43772888183594,1062.501708984375,144.53147888183594
837.2949829101562,809.330322265625,-175.78152465820312,1054.689208984375,121.09394073486328
837.2949829101562,809.330322265625,-187.5002899169922,1019.5328369140624,117.18768310546876
834.0050048828125,845.5198974609375,-167.96900939941406,976.5640258789062,128.90644836425778
842.2299194335938,894.8693237304688,-167.96900939941406,976.5640258789062,128.90644836425778
838.9400024414062,871.839599609375,-167.96900939941406,976.5640258789062,128.90644836425778
832.3600463867188,847.1648559570312,-195.31280517578125,1027.3453369140623,128.90644836425778
822.4901733398438,830.715087890625,-82.03137969970703,1042.9703369140623,277.3441772460937
832.3600463867188,843.8749389648438,-82.03137969970703,992.1890258789062,277.3441772460937
827.4251098632812,822.4901733398438,-93.7501449584961,980.4702758789062,250.0003967285156
815.9102783203125,769.850830078125,-93.7501449584961,980.4702758789062,250.0003967285156
824.1351318359375,758.3359375,-70.31260681152344,1035.1578369140623,191.40655517578125
824.1351318359375,774.7857666015625,-70.31260681152344,1035.1578369140623,191.40655517578125
825.7801513671875,763.2708740234375,-97.65640258789062,949.22021484375,191.40655517578125
825.7801513671875,763.2708740234375,-101.56266021728516,1027.3453369140623,156.250244140625
830.715087890625,787.945556640625,-105.46891784667969,988.2827758789062,171.87527465820312
827.4251098632812,806.0403442382812,-140.62521362304688,1015.6265869140624,152.343994140625
829.070068359375,809.330322265625,-125.0001983642578,1011.7203369140624,164.06275939941406
825.7801513671875,824.1351318359375,-125.0001983642578,1011.7203369140624,164.06275939941406
829.070068359375,835.6500244140625,-125.0001983642578,1011.7203369140624,164.06275939941406
829.070068359375,835.6500244140625,-93.7501449584961,1023.4390869140624,136.71896362304688
829.070068359375,819.2001953125,-140.62521362304688,937.50146484375,144.53147888183594
829.070068359375,819.2001953125,-152.343994140625,941.40771484375,148.43772888183594
830.715087890625,820.84521484375,-152.343994140625,972.6577758789062,144.53147888183594
830.715087890625,755.0459594726562,-152.343994140625,972.6577758789062,144.53147888183594
845.5198974609375,789.590576171875,-144.53147888183594,1027.3453369140623,152.343994140625
837.2949829101562,806.0403442382812,-164.06275939941406,1000.0015869140624,160.156494140625
843.8749389648438,819.2001953125,-164.06275939941406,1000.0015869140624,160.156494140625
837.2949829101562,810.9752807617188,-121.09394073486328,1054.689208984375,187.5002899169922
840.5849609375,830.715087890625,-121.09394073486328,1054.689208984375,187.5002899169922
835.6500244140625,814.2652587890625,-167.96900939941406,1007.8140869140624,167.96900939941406
837.2949829101562,819.2001953125,-167.96900939941406,1007.8140869140624,167.96900939941406
842.2299194335938,842.2299194335938,-167.96900939941406,1007.8140869140624,167.96900939941406
838.9400024414062,842.2299194335938,-140.62521362304688,1011.7203369140624,156.250244140625
824.1351318359375,802.7504272460938,-140.62521362304688,1011.7203369140624,156.250244140625
830.715087890625,812.6203002929688,-191.40655517578125,960.9390258789062,156.250244140625
830.715087890625,812.6203002929688,-191.40655517578125,968.7515258789062,156.250244140625
832.3600463867188,819.2001953125,-191.40655517578125,968.7515258789062,156.250244140625
825.7801513671875,815.9102783203125,-183.5940399169922,1000.0015869140624,167.96900939941406
829.070068359375,843.8749389648438,-171.87527465820312,996.0953369140624,175.78152465820312
829.070068359375,843.8749389648438,-164.06275939941406,984.3765258789062,187.5002899169922
835.6500244140625,852.0997924804688,-179.68777465820312,988.2827758789062,183.5940399169922
829.070068359375,840.5849609375,-179.68777465820312,988.2827758789062,183.5940399169922
832.3600463867188,840.5849609375,-175.78152465820312,1003.9078369140624,203.1253204345703
832.3600463867188,848.8098754882812,-175.78152465820312,1003.9078369140624,203.1253204345703
834.0050048828125,837.2949829101562,-164.06275939941406,1011.7203369140624,195.31280517578125
837.2949829101562,838.9400024414062,-164.06275939941406,1011.7203369140624,195.31280517578125
840.5849609375,840.5849609375,-179.68777465820312,1000.0015869140624,175.78152465820312
832.3600463867188,825.7801513671875,-183.5940399169922,976.5640258789062,175.78152465820312
832.3600463867188,825.7801513671875,-171.87527465820312,988.2827758789062,179.68777465820312
830.715087890625,829.070068359375,-171.87527465820312,988.2827758789062,179.68777465820312
834.0050048828125,873.4845581054688,-191.40655517578125,996.0953369140624,175.78152465820312
832.3600463867188,860.32470703125,-183.5940399169922,988.2827758789062,187.5002899169922
843.8749389648438,870.194580078125,-167.96900939941406,996.0953369140624,183.5940399169922
843.8749389648438,870.194580078125,-179.68777465820312,976.5640258789062,199.21905517578125
840.5849609375,860.32470703125,-179.68777465820312,976.5640258789062,199.21905517578125
837.2949829101562,848.8098754882812,-167.96900939941406,1000.0015869140624,203.1253204345703
838.9400024414062,848.8098754882812,-171.87527465820312,1023.4390869140624,199.21905517578125
843.8749389648438,860.32470703125,-179.68777465820312,1011.7203369140624,175.78152465820312
843.8749389648438,860.32470703125,-183.5940399169922,1011.7203369140624,171.87527465820312
838.9400024414062,850.454833984375,-179.68777465820312,996.0953369140624,164.06275939941406
834.0050048828125,832.3600463867188,-179.68777465820312,996.0953369140624,164.06275939941406
838.9400024414062,857.0347290039062,-175.78152465820312,984.3765258789062,156.250244140625
842.2299194335938,835.6500244140625,-175.78152465820312,984.3765258789062,156.250244140625
838.9400024414062,829.070068359375,-152.343994140625,996.0953369140624,187.5002899169922
838.9400024414062,829.070068359375,-171.87527465820312,976.5640258789062,195.31280517578125
845.5198974609375,847.1648559570312,-203.1253204345703,964.8452758789062,183.5940399169922
835.6500244140625,786.3005981445312,-183.5940399169922,1000.0015869140624,179.68777465820312
838.9400024414062,771.4957885742188,-183.5940399169922,1000.0015869140624,179.68777465820312
834.0050048828125,779.720703125,-148.43772888183594,996.0953369140624,199.21905517578125
832.3600463867188,779.720703125,-148.43772888183594,996.0953369140624,199.21905517578125
842.2299194335938,801.1054077148438,-148.43772888183594,996.0953369140624,199.21905517578125
835.6500244140625,792.8805541992188,-167.96900939941406,1007.8140869140624,167.96900939941406
835.6500244140625,801.1054077148438,-144.53147888183594,988.2827758789062,183.5940399169922
835.6500244140625,801.1054077148438,-128.90644836425778,1003.9078369140624,187.5002899169922
837.2949829101562,809.330322265625,-148.43772888183594,1027.3453369140623,171.87527465820312
835.6500244140625,804.3953857421875,-171.87527465820312,1027.3453369140623,164.06275939941406
835.6500244140625,804.3953857421875,-191.40655517578125,980.4702758789062,187.5002899169922
840.5849609375,820.84521484375,-191.40655517578125,980.4702758789062,187.5002899169922
832.3600463867188,794.5255126953125,-203.1253204345703,980.4702758789062,175.78152465820312
829.070068359375,799.46044921875,-203.1253204345703,980.4702758789062,175.78152465820312
837.2949829101562,824.1351318359375,-195.31280517578125,1011.7203369140624,152.343994140625
837.2949829101562,824.1351318359375,-171.87527465820312,1023.4390869140624,175.78152465820312
832.3600463867188,815.9102783203125,-171.87527465820312,1023.4390869140624,175.78152465820312
840.5849609375,812.6203002929688,-160.156494140625,984.3765258789062,183.5940399169922
840.5849609375,802.7504272460938,-175.78152465820312,1007.8140869140624,195.31280517578125
850.454833984375,810.9752807617188,-175.78152465820312,1007.8140869140624,195.31280517578125
848.8098754882812,810.9752807617188,-175.78152465820312,1007.8140869140624,195.31280517578125
840.5849609375,820.84521484375,-175.78152465820312,1007.8140869140624,191.40655517578125
837.2949829101562,809.330322265625,-144.53147888183594,1027.3453369140623,191.40655517578125
837.2949829101562,809.330322265625,-136.71896362304688,1003.9078369140624,183.5940399169922
838.9400024414062,822.4901733398438,-136.71896362304688,1003.9078369140624,183.5940399169922
832.3600463867188,810.9752807617188,-136.71896362304688,1003.9078369140624,183.5940399169922
848.8098754882812,829.070068359375,-148.43772888183594,996.0953369140624,210.93783569335938
848.8098754882812,829.070068359375,-167.96900939941406,1015.6265869140624,203.1253204345703
840.5849609375,830.715087890625,-167.96900939941406,1015.6265869140624,203.1253204345703
840.5849609375,852.0997924804688,-156.250244140625,1039.0640869140623,199.21905517578125
834.0050048828125,847.1648559570312,-156.250244140625,1039.0640869140623,199.21905517578125
838.9400024414062,858.6797485351562,-156.250244140625,1039.0640869140623,199.21905517578125
840.5849609375,855.3897705078125,-175.78152465820312,976.5640258789062,191.40655517578125
838.9400024414062,845.5198974609375,-160.156494140625,960.9390258789062,210.93783569335938
832.3600463867188,825.7801513671875,-167.96900939941406,1011.7203369140624,171.87527465820312
830.715087890625,824.1351318359375,-167.96900939941406,1011.7203369140624,171.87527465820312
837.2949829101562,822.4901733398438,-148.43772888183594,960.9390258789062,191.40655517578125
835.6500244140625,820.84521484375,-140.62521362304688,984.3765258789062,179.68777465820312
840.5849609375,830.715087890625,-156.250244140625,1035.1578369140623,160.156494140625
835.6500244140625,829.070068359375,-101.56266021728516,1058.595458984375,167.96900939941406
830.715087890625,817.5552368164062,-101.56266021728516,1058.595458984375,167.96900939941406
827.4251098632812,820.84521484375,-109.37516784667969,976.5640258789062,175.78152465820312
834.0050048828125,838.9400024414062,-179.68777465820312,996.0953369140624,148.43772888183594
834.0050048828125,838.9400024414062,-175.78152465820312,949.22021484375,160.156494140625
840.5849609375,857.0347290039062,-148.43772888183594,1023.4390869140624,164.06275939941406
819.2001953125,817.5552368164062,-117.18768310546876,1062.501708984375,144.53147888183594
834.0050048828125,865.2596435546875,-109.37516784667969,1027.3453369140623,109.37516784667969
827.4251098632812,835.6500244140625,-117.18768310546876,976.5640258789062,125.0001983642578
830.715087890625,834.0050048828125,-78.1251220703125,996.0953369140624,152.343994140625
830.715087890625,834.0050048828125,-42.96881866455078,984.3765258789062,171.87527465820312
830.715087890625,834.0050048828125,-97.65640258789062,1046.8765869140623,167.96900939941406
825.7801513671875,830.715087890625,-97.65640258789062,1046.8765869140623,167.96900939941406
832.3600463867188,853.7448120117188,-125.0001983642578,992.1890258789062,160.156494140625
825.7801513671875,825.7801513671875,-125.0001983642578,992.1890258789062,160.156494140625
829.070068359375,829.070068359375,-125.0001983642578,992.1890258789062,160.156494140625
829.070068359375,829.070068359375,-117.18768310546876,945.31396484375,148.43772888183594
822.4901733398438,822.4901733398438,-117.18768310546876,945.31396484375,148.43772888183594
838.9400024414062,853.7448120117188,-121.09394073486328,984.3765258789062,144.53147888183594
829.070068359375,837.2949829101562,-78.1251220703125,1023.4390869140624,152.343994140625
829.070068359375,837.2949829101562,-50.78133010864258,1011.7203369140624,195.31280517578125
829.070068359375,837.2949829101562,-78.1251220703125,1042.9703369140623,187.5002899169922
837.2949829101562,845.5198974609375,-78.1251220703125,1042.9703369140623,187.5002899169922
832.3600463867188,827.4251098632812,-15.625024795532227,953.12646484375,226.56285095214844
832.3600463867188,834.0050048828125,-15.625024795532227,953.12646484375,226.56285095214844
834.0050048828125,847.1648559570312,-164.06275939941406,1015.6265869140624,101.56266021728516
834.0050048828125,847.1648559570312,-105.46891784667969,1003.9078369140624,121.09394073486328
830.715087890625,838.9400024414062,-105.46891784667969,1003.9078369140624,121.09394073486328
834.0050048828125,843.8749389648438,-62.5000991821289,968.7515258789062,156.250244140625
832.3600463867188,840.5849609375,-101.56266021728516,1011.7203369140624,144.53147888183594
824.1351318359375,830.715087890625,-74.21886444091797,1000.0015869140624,171.87527465820312
824.1351318359375,830.715087890625,-78.1251220703125,1011.7203369140624,175.78152465820312
827.4251098632812,825.7801513671875,-97.65640258789062,1015.6265869140624,167.96900939941406
842.2299194335938,857.0347290039062,-97.65640258789062,1015.6265869140624,167.96900939941406
838.9400024414062,830.715087890625,-89.84388732910156,1027.3453369140623,167.96900939941406
829.070068359375,825.7801513671875,-89.84388732910156,1042.9703369140623,160.156494140625
829.070068359375,825.7801513671875,-70.31260681152344,996.0953369140624,179.68777465820312
837.2949829101562,847.1648559570312,-70.31260681152344,996.0953369140624,179.68777465820312
835.6500244140625,835.6500244140625,-70.31260681152344,996.0953369140624,179.68777465820312
834.0050048828125,827.4251098632812,-89.84388732910156,1007.8140869140624,160.156494140625
837.2949829101562,842.2299194335938,-82.03137969970703,984.3765258789062,167.96900939941406
837.2949829101562,842.2299194335938,-82.03137969970703,1015.6265869140624,156.250244140625
830.715087890625,817.5552368164062,-93.7501449584961,1058.595458984375,148.43772888183594
837.2949829101562,819.2001953125,-62.5000991821289,976.5640258789062,187.5002899169922
837.2949829101562,819.2001953125,-89.84388732910156,1007.8140869140624,156.250244140625
842.2299194335938,832.3600463867188,-89.84388732910156,1007.8140869140624,156.250244140625
840.5849609375,842.2299194335938,-89.84388732910156,1007.8140869140624,156.250244140625
840.5849609375,842.2299194335938,-117.18768310546876,1019.5328369140624,179.68777465820312
827.4251098632812,827.4251098632812,-105.46891784667969,1035.1578369140623,140.62521362304688
834.0050048828125,835.6500244140625,-62.5000991821289,972.6577758789062,160.156494140625
829.070068359375,820.84521484375,-62.5000991821289,972.6577758789062,160.156494140625
827.4251098632812,815.9102783203125,-132.81271362304688,968.7515258789062,183.5940399169922
834.0050048828125,807.6853637695312,-132.81271362304688,968.7515258789062,183.5940399169922
838.9400024414062,824.1351318359375,-167.96900939941406,972.6577758789062,144.53147888183594
829.070068359375,802.7504272460938,-85.93763732910156,953.12646484375,125.0001983642578
829.070068359375,802.7504272460938,-78.1251220703125,988.2827758789062,148.43772888183594
829.070068359375,802.7504272460938,-78.1251220703125,1027.3453369140623,148.43772888183594
840.5849609375,825.7801513671875,-78.1251220703125,1027.3453369140623,148.43772888183594
840.5849609375,837.2949829101562,-66.40635681152344,1042.9703369140623,160.156494140625
845.5198974609375,830.715087890625,-66.40635681152344,1042.9703369140623,160.156494140625
834.0050048828125,812.6203002929688,-58.59384155273438,1042.9703369140623,175.78152465820312
834.0050048828125,812.6203002929688,-82.03137969970703,1015.6265869140624,171.87527465820312
838.9400024414062,830.715087890625,-82.03137969970703,1015.6265869140624,171.87527465820312
838.9400024414062,827.4251098632812,-66.40635681152344,984.3765258789062,171.87527465820312
838.9400024414062,827.4251098632812,-66.40635681152344,980.4702758789062,183.5940399169922
838.9400024414062,827.4251098632812,-82.03137969970703,996.0953369140624,183.5940399169922
837.2949829101562,832.3600463867188,-82.03137969970703,996.0953369140624,183.5940399169922
832.3600463867188,834.0050048828125,-78.1251220703125,992.1890258789062,179.68777465820312
832.3600463867188,834.0050048828125,-89.84388732910156,1015.6265869140624,179.68777465820312
834.0050048828125,838.9400024414062,-89.84388732910156,1015.6265869140624,179.68777465820312
834.0050048828125,824.1351318359375,-89.84388732910156,1011.7203369140624,179.68777465820312
835.6500244140625,829.070068359375,-89.84388732910156,1011.7203369140624,179.68777465820312
835.6500244140625,822.4901733398438,-89.84388732910156,1011.7203369140624,179.68777465820312
835.6500244140625,829.070068359375,-113.28142547607422,984.3765258789062,179.68777465820312
832.3600463867188,822.4901733398438,-97.65640258789062,972.6577758789062,207.0315704345703
832.3600463867188,822.4901733398438,-97.65640258789062,1000.0015869140624,210.93783569335938
832.3600463867188,847.1648559570312,-97.65640258789062,1000.0015869140624,210.93783569335938
832.3600463867188,838.9400024414062,-97.65640258789062,1000.0015869140624,210.93783569335938
832.3600463867188,838.9400024414062,-89.84388732910156,1007.8140869140624,183.5940399169922
834.0050048828125,901.44921875,-89.84388732910156,1007.8140869140624,183.5940399169922
835.6500244140625,906.3841552734376,-85.93763732910156,1019.5328369140624,179.68777465820312
835.6500244140625,899.8042602539062,-78.1251220703125,980.4702758789062,179.68777465820312
827.4251098632812,865.2596435546875,-101.56266021728516,1035.1578369140623,175.78152465820312
820.84521484375,866.9046630859375,-101.56266021728516,1035.1578369140623,175.78152465820312
830.715087890625,880.064453125,-101.56266021728516,1035.1578369140623,175.78152465820312
830.715087890625,855.3897705078125,-82.03137969970703,976.5640258789062,160.156494140625
830.715087890625,855.3897705078125,-85.93763732910156,1035.1578369140623,148.43772888183594
837.2949829101562,853.7448120117188,-85.93763732910156,1035.1578369140623,148.43772888183594
834.0050048828125,850.454833984375,-109.37516784667969,1000.0015869140624,160.156494140625
829.070068359375,842.2299194335938,-109.37516784667969,1000.0015869140624,160.156494140625
829.070068359375,820.84521484375,-105.46891784667969,1007.8140869140624,148.43772888183594
835.6500244140625,840.5849609375,-109.37516784667969,1027.3453369140623,140.62521362304688
838.9400024414062,835.6500244140625,-78.1251220703125,1023.4390869140624,144.53147888183594
827.4251098632812,820.84521484375,-85.93763732910156,1023.4390869140624,156.250244140625
810.9752807617188,814.2652587890625,-85.93763732910156,1023.4390869140624,156.250244140625
834.0050048828125,815.9102783203125,-101.56266021728516,1011.7203369140624,140.62521362304688
837.2949829101562,820.84521484375,-101.56266021728516,1011.7203369140624,140.62521362304688
832.3600463867188,829.070068359375,-101.56266021728516,1011.7203369140624,140.62521362304688
834.0050048828125,829.070068359375,-101.56266021728516,1019.5328369140624,148.43772888183594
837.2949829101562,815.9102783203125,-101.56266021728516,1019.5328369140624,148.43772888183594
829.070068359375,809.330322265625,-101.56266021728516,1019.5328369140624,148.43772888183594
832.3600463867188,822.4901733398438,-109.37516784667969,984.3765258789062,148.43772888183594
827.4251098632812,809.330322265625,-82.03137969970703,1019.5328369140624,164.06275939941406
827.4251098632812,809.330322265625,-82.03137969970703,1007.8140869140624,160.156494140625
829.070068359375,825.7801513671875,-82.03137969970703,1007.8140869140624,160.156494140625
830.715087890625,817.5552368164062,-89.84388732910156,1000.0015869140624,164.06275939941406
835.6500244140625,829.070068359375,-89.84388732910156,1000.0015869140624,164.06275939941406
838.9400024414062,832.3600463867188,-85.93763732910156,1015.6265869140624,175.78152465820312
834.0050048828125,820.84521484375,-89.84388732910156,1015.6265869140624,171.87527465820312
832.3600463867188,822.4901733398438,-89.84388732910156,1015.6265869140624,171.87527465820312
832.3600463867188,822.4901733398438,-82.03137969970703,996.0953369140624,171.87527465820312
837.2949829101562,834.0050048828125,-85.93763732910156,1003.9078369140624,171.87527465820312
838.9400024414062,832.3600463867188,-89.84388732910156,992.1890258789062,160.156494140625
838.9400024414062,832.3600463867188,-85.93763732910156,972.6577758789062,156.250244140625
829.070068359375,815.9102783203125,-85.93763732910156,972.6577758789062,156.250244140625
832.3600463867188,837.2949829101562,-97.65640258789062,1011.7203369140624,160.156494140625
838.9400024414062,829.070068359375,-97.65640258789062,1011.7203369140624,160.156494140625
835.6500244140625,829.070068359375,-78.1251220703125,1019.5328369140624,164.06275939941406
848.8098754882812,837.2949829101562,-78.1251220703125,1019.5328369140624,160.156494140625
848.8098754882812,837.2949829101562,-82.03137969970703,1007.8140869140624,156.250244140625
835.6500244140625,810.9752807617188,-82.03137969970703,1003.9078369140624,160.156494140625
835.6500244140625,814.2652587890625,-82.03137969970703,1003.9078369140624,160.156494140625
838.9400024414062,825.7801513671875,-82.03137969970703,1000.0015869140624,156.250244140625
835.6500244140625,809.330322265625,-82.03137969970703,1000.0015869140624,156.250244140625
840.5849609375,827.4251098632812,-82.03137969970703,1000.0015869140624,156.250244140625
835.6500244140625,809.330322265625,-89.84388732910156,1007.8140869140624,152.343994140625
830.715087890625,812.6203002929688,-89.84388732910156,1007.8140869140624,152.343994140625
838.9400024414062,820.84521484375,-82.03137969970703,1011.7203369140624,148.43772888183594
832.3600463867188,801.1054077148438,-74.21886444091797,1007.8140869140624,152.343994140625
838.9400024414062,825.7801513671875,-85.93763732910156,1007.8140869140624,148.43772888183594
838.9400024414062,825.7801513671875,-78.1251220703125,1011.7203369140624,152.343994140625
832.3600463867188,804.3953857421875,-78.1251220703125,1011.7203369140624,152.343994140625
838.9400024414062,829.070068359375,-82.03137969970703,1007.8140869140624,144.53147888183594
840.5849609375,834.0050048828125,-82.03137969970703,1003.9078369140624,148.43772888183594
847.1648559570312,829.070068359375,-82.03137969970703,1027.3453369140623,148.43772888183594
847.1648559570312,829.070068359375,-85.93763732910156,1015.6265869140624,152.343994140625
832.3600463867188,809.330322265625,-85.93763732910156,1015.6265869140624,152.343994140625
834.0050048828125,820.84521484375,-97.65640258789062,1000.0015869140624,144.53147888183594
837.2949829101562,830.715087890625,-97.65640258789062,1000.0015869140624,144.53147888183594
840.5849609375,829.070068359375,-70.31260681152344,1031.2515869140623,140.62521362304688
840.5849609375,829.070068359375,-70.31260681152344,1011.7203369140624,140.62521362304688
832.3600463867188,814.2652587890625,-70.31260681152344,1011.7203369140624,140.62521362304688
835.6500244140625,810.9752807617188,-70.31260681152344,1011.7203369140624,140.62521362304688
847.1648559570312,837.2949829101562,-62.5000991821289,1031.2515869140623,140.62521362304688
835.6500244140625,817.5552368164062,-62.5000991821289,1031.2515869140623,140.62521362304688
840.5849609375,829.070068359375,-58.59384155273438,1023.4390869140624,140.62521362304688
838.9400024414062,820.84521484375,-70.31260681152344,1019.5328369140624,136.71896362304688
838.9400024414062,820.84521484375,-42.96881866455078,996.0953369140624,152.343994140625
838.9400024414062,820.84521484375,-50.78133010864258,1027.3453369140623,140.62521362304688
838.9400024414062,819.2001953125,-62.5000991821289,1007.8140869140624,148.43772888183594
838.9400024414062,819.2001953125,-58.59384155273438,1015.6265869140624,148.43772888183594
837.2949829101562,832.3600463867188,-74.21886444091797,1011.7203369140624,144.53147888183594
835.6500244140625,832.3600463867188,-74.21886444091797,1003.9078369140624,148.43772888183594
837.2949829101562,837.2949829101562,-74.21886444091797,1003.9078369140624,148.43772888183594
835.6500244140625,827.4251098632812,-74.21886444091797,1003.9078369140624,148.43772888183594
834.0050048828125,845.5198974609375,-82.03137969970703,1007.8140869140624,144.53147888183594
827.4251098632812,835.6500244140625,-70.31260681152344,996.0953369140624,148.43772888183594
827.4251098632812,835.6500244140625,-89.84388732910156,1015.6265869140624,136.71896362304688
827.4251098632812,835.6500244140625,-85.93763732910156,1023.4390869140624,132.81271362304688
834.0050048828125,830.715087890625,-78.1251220703125,1007.8140869140624,132.81271362304688
834.0050048828125,814.2652587890625,-62.5000991821289,1011.7203369140624,132.81271362304688
829.070068359375,812.6203002929688,-70.31260681152344,1015.6265869140624,125.0001983642578
834.0050048828125,829.070068359375,-70.31260681152344,1015.6265869140624,125.0001983642578
830.715087890625,819.2001953125,-74.21886444091797,1027.3453369140623,125.0001983642578
842.2299194335938,827.4251098632812,-82.03137969970703,1019.5328369140624,128.90644836425778
838.9400024414062,814.2652587890625,-74.21886444091797,1019.5328369140624,117.18768310546876
834.0050048828125,809.330322265625,-78.1251220703125,1031.2515869140623,121.09394073486328
830.715087890625,801.1054077148438,-78.1251220703125,1015.6265869140624,128.90644836425778
830.715087890625,801.1054077148438,-58.59384155273438,1023.4390869140624,121.09394073486328
840.5849609375,825.7801513671875,-58.59384155273438,1023.4390869140624,121.09394073486328
840.5849609375,810.9752807617188,-58.59384155273438,1023.4390869140624,121.09394073486328
838.9400024414062,835.6500244140625,-78.1251220703125,1023.4390869140624,109.37516784667969
847.1648559570312,861.9697265625,-82.03137969970703,1019.5328369140624,113.28142547607422
834.0050048828125,840.5849609375,-89.84388732910156,1007.8140869140624,105.46891784667969
834.0050048828125,840.5849609375,-66.40635681152344,1003.9078369140624,109.37516784667969
837.2949829101562,837.2949829101562,-58.59384155273438,1031.2515869140623,105.46891784667969
837.2949829101562,850.454833984375,-93.7501449584961,1007.8140869140624,97.65640258789062
837.2949829101562,850.454833984375,-85.93763732910156,1019.5328369140624,101.56266021728516
842.2299194335938,853.7448120117188,-85.93763732910156,1019.5328369140624,101.56266021728516
834.0050048828125,842.2299194335938,-85.93763732910156,1019.5328369140624,101.56266021728516
837.2949829101562,834.0050048828125,-74.21886444091797,1023.4390869140624,109.37516784667969
837.2949829101562,830.715087890625,-74.21886444091797,1023.4390869140624,109.37516784667969
835.6500244140625,829.070068359375,-109.37516784667969,992.1890258789062,93.7501449584961
835.6500244140625,829.070068359375,-66.40635681152344,1019.5328369140624,113.28142547607422
837.2949829101562,840.5849609375,-66.40635681152344,1019.5328369140624,113.28142547607422
837.2949829101562,824.1351318359375,-74.21886444091797,1035.1578369140623,113.28142547607422
843.8749389648438,838.9400024414062,-85.93763732910156,1027.3453369140623,113.28142547607422
842.2299194335938,835.6500244140625,-85.93763732910156,1027.3453369140623,117.18768310546876
837.2949829101562,824.1351318359375,-74.21886444091797,1027.3453369140623,117.18768310546876
837.2949829101562,824.1351318359375,-85.93763732910156,1019.5328369140624,113.28142547607422
834.0050048828125,829.070068359375,-85.93763732910156,1019.5328369140624,113.28142547607422
832.3600463867188,837.2949829101562,-78.1251220703125,1023.4390869140624,125.0001983642578
832.3600463867188,837.2949829101562,-82.03137969970703,1027.3453369140623,125.0001983642578
834.0050048828125,840.5849609375,-82.03137969970703,1027.3453369140623,125.0001983642578
829.070068359375,825.7801513671875,-82.03137969970703,1019.5328369140624,121.09394073486328
829.070068359375,807.6853637695312,-82.03137969970703,1019.5328369140624,121.09394073486328
832.3600463867188,832.3600463867188,-82.03137969970703,1019.5328369140624,121.09394073486328
840.5849609375,825.7801513671875,-74.21886444091797,1019.5328369140624,125.0001983642578
842.2299194335938,829.070068359375,-74.21886444091797,1003.9078369140624,125.0001983642578
845.5198974609375,832.3600463867188,-70.31260681152344,1007.8140869140624,132.81271362304688
838.9400024414062,838.9400024414062,-93.7501449584961,1015.6265869140624,125.0001983642578
840.5849609375,843.8749389648438,-93.7501449584961,1015.6265869140624,125.0001983642578
832.3600463867188,829.070068359375,-93.7501449584961,1011.7203369140624,144.53147888183594
832.3600463867188,829.070068359375,-105.46891784667969,1019.5328369140624,132.81271362304688
832.3600463867188,822.4901733398438,-105.46891784667969,1019.5328369140624,132.81271362304688
832.3600463867188,832.3600463867188,-105.46891784667969,1019.5328369140624,132.81271362304688
838.9400024414062,845.5198974609375,-74.21886444091797,1035.1578369140623,132.81271362304688
834.0050048828125,829.070068359375,-78.1251220703125,996.0953369140624,140.62521362304688
834.0050048828125,829.070068359375,-66.40635681152344,1011.7203369140624,140.62521362304688
832.3600463867188,829.070068359375,-82.03137969970703,1023.4390869140624,132.81271362304688
830.715087890625,825.7801513671875,-82.03137969970703,1023.4390869140624,132.81271362304688
843.8749389648438,843.8749389648438,-85.93763732910156,988.2827758789062,140.62521362304688
829.070068359375,824.1351318359375,-85.93763732910156,988.2827758789062,140.62521362304688
824.1351318359375,810.9752807617188,-85.93763732910156,988.2827758789062,140.62521362304688
824.1351318359375,810.9752807617188,-70.31260681152344,1031.2515869140623,144.53147888183594
838.9400024414062,810.9752807617188,-85.93763732910156,1011.7203369140624,140.62521362304688
838.9400024414062,810.9752807617188,-70.31260681152344,1019.5328369140624,148.43772888183594
838.9400024414062,814.2652587890625,-70.31260681152344,1019.5328369140624,148.43772888183594
847.1648559570312,822.4901733398438,-70.31260681152344,1019.5328369140624,148.43772888183594
835.6500244140625,837.2949829101562,-97.65640258789062,1007.8140869140624,136.71896362304688
827.4251098632812,835.6500244140625,-97.65640258789062,1007.8140869140624,136.71896362304688
837.2949829101562,847.1648559570312,-97.65640258789062,1007.8140869140624,136.71896362304688
829.070068359375,837.2949829101562,-101.56266021728516,1000.0015869140624,144.53147888183594
832.3600463867188,842.2299194335938,-101.56266021728516,1000.0015869140624,144.53147888183594
830.715087890625,842.2299194335938,-101.56266021728516,1000.0015869140624,144.53147888183594
822.4901733398438,824.1351318359375,-97.65640258789062,1011.7203369140624,136.71896362304688
838.9400024414062,850.454833984375,-97.65640258789062,1011.7203369140624,136.71896362304688
838.9400024414062,850.454833984375,-97.65640258789062,1031.2515869140623,125.0001983642578
838.9400024414062,832.3600463867188,-97.65640258789062,1031.2515869140623,125.0001983642578
830.715087890625,825.7801513671875,-105.46891784667969,996.0953369140624,132.81271362304688
830.715087890625,825.7801513671875,-109.37516784667969,1023.4390869140624,132.81271362304688
835.6500244140625,824.1351318359375,-109.37516784667969,1023.4390869140624,132.81271362304688
840.5849609375,835.6500244140625,-109.37516784667969,1023.4390869140624,132.81271362304688
837.2949829101562,834.0050048828125,-101.56266021728516,1011.7203369140624,132.81271362304688
825.7801513671875,819.2001953125,-101.56266021728516,1011.7203369140624,132.81271362304688
835.6500244140625,847.1648559570312,-125.0001983642578,1023.4390869140624,121.09394073486328
830.715087890625,835.6500244140625,-117.18768310546876,984.3765258789062,125.0001983642578
830.715087890625,835.6500244140625,-117.18768310546876,1027.3453369140623,128.90644836425778
830.715087890625,835.6500244140625,-125.0001983642578,1042.9703369140623,121.09394073486328
832.3600463867188,837.2949829101562,-125.0001983642578,1042.9703369140623,121.09394073486328
842.2299194335938,847.1648559570312,-125.0001983642578,1007.8140869140624,113.28142547607422
834.0050048828125,822.4901733398438,-125.0001983642578,1007.8140869140624,113.28142547607422
838.9400024414062,842.2299194335938,-140.62521362304688,996.0953369140624,117.18768310546876
838.9400024414062,842.2299194335938,-140.62521362304688,996.0953369140624,109.37516784667969
834.0050048828125,822.4901733398438,-140.62521362304688,996.0953369140624,109.37516784667969
832.3600463867188,837.2949829101562,-144.53147888183594,1003.9078369140624,113.28142547607422
832.3600463867188,837.2949829101562,-140.62521362304688,1003.9078369140624,121.09394073486328
838.9400024414062,848.8098754882812,-128.90644836425778,1011.7203369140624,121.09394073486328
838.9400024414062,848.8098754882812,-113.28142547607422,992.1890258789062,125.0001983642578
830.715087890625,832.3600463867188,-113.28142547607422,992.1890258789062,125.0001983642578
829.070068359375,861.9697265625,-109.37516784667969,1035.1578369140623,125.0001983642578
829.070068359375,861.9697265625,-121.09394073486328,1019.5328369140624,113.28142547607422
830.715087890625,860.32470703125,-121.09394073486328,1019.5328369140624,113.28142547607422
825.7801513671875,848.8098754882812,-121.09394073486328,1019.5328369140624,117.18768310546876
838.9400024414062,858.6797485351562,-125.0001983642578,1000.0015869140624,125.0001983642578
835.6500244140625,848.8098754882812,-136.71896362304688,1035.1578369140623,113.28142547607422
824.1351318359375,829.070068359375,-128.90644836425778,1007.8140869140624,132.81271362304688
832.3600463867188,857.0347290039062,-128.90644836425778,1007.8140869140624,132.81271362304688
829.070068359375,835.6500244140625,-156.250244140625,1015.6265869140624,132.81271362304688
837.2949829101562,829.070068359375,-125.0001983642578,1027.3453369140623,128.90644836425778
837.2949829101562,829.070068359375,-125.0001983642578,1042.9703369140623,125.0001983642578
840.5849609375,825.7801513671875,-136.71896362304688,988.2827758789062,125.0001983642578
838.9400024414062,840.5849609375,-140.62521362304688,1023.4390869140624,121.09394073486328
843.8749389648438,840.5849609375,-140.62521362304688,1023.4390869140624,121.09394073486328
843.8749389648438,838.9400024414062,-121.09394073486328,992.1890258789062,128.90644836425778
838.9400024414062,834.0050048828125,-113.28142547607422,1003.9078369140624,128.90644836425778
842.2299194335938,837.2949829101562,-125.0001983642578,1000.0015869140624,132.81271362304688
843.8749389648438,827.4251098632812,-152.343994140625,1015.6265869140624,113.28142547607422
843.8749389648438,827.4251098632812,-128.90644836425778,1011.7203369140624,125.0001983642578
837.2949829101562,815.9102783203125,-125.0001983642578,1023.4390869140624,132.81271362304688
840.5849609375,822.4901733398438,-125.0001983642578,1023.4390869140624,132.81271362304688
835.6500244140625,825.7801513671875,-117.18768310546876,1007.8140869140624,121.09394073486328
842.2299194335938,840.5849609375,-117.18768310546876,1007.8140869140624,121.09394073486328
830.715087890625,814.2652587890625,-93.7501449584961,1007.8140869140624,117.18768310546876
837.2949829101562,827.4251098632812,-101.56266021728516,1011.7203369140624,121.09394073486328
837.2949829101562,817.5552368164062,-101.56266021728516,1011.7203369140624,121.09394073486328
842.2299194335938,829.070068359375,-89.84388732910156,1007.8140869140624,140.62521362304688
842.2299194335938,829.070068359375,-89.84388732910156,1011.7203369140624,136.71896362304688
845.5198974609375,840.5849609375,-89.84388732910156,1011.7203369140624,136.71896362304688
835.6500244140625,820.84521484375,-117.18768310546876,1062.501708984375,113.28142547607422
837.2949829101562,834.0050048828125,-117.18768310546876,1062.501708984375,113.28142547607422
838.9400024414062,843.8749389648438,-117.18768310546876,1062.501708984375,113.28142547607422
843.8749389648438,843.8749389648438,-140.62521362304688,996.0953369140624,78.1251220703125
835.6500244140625,838.9400024414062,-101.56266021728516,964.8452758789062,97.65640258789062
835.6500244140625,838.9400024414062,-82.03137969970703,953.12646484375,101.56266021728516
838.9400024414062,838.9400024414062,-85.93763732910156,945.31396484375,117.18768310546876
834.0050048828125,838.9400024414062,-85.93763732910156,945.31396484375,117.18768310546876
834.0050048828125,838.9400024414062,-132.81271362304688,1050.7828369140623,121.09394073486328
832.3600463867188,845.5198974609375,-31.25004959106445,929.68896484375,175.78152465820312
843.8749389648438,853.7448120117188,-70.31260681152344,937.50146484375,175.78152465820312
832.3600463867188,827.4251098632812,-85.93763732910156,996.0953369140624,113.28142547607422
832.3600463867188,827.4251098632812,-109.37516784667969,1000.0015869140624,101.56266021728516
838.9400024414062,835.6500244140625,-109.37516784667969,1000.0015869140624,101.56266021728516
845.5198974609375,837.2949829101562,-128.90644836425778,992.1890258789062,97.65640258789062
845.5198974609375,837.2949829101562,-121.09394073486328,941.40771484375,121.09394073486328
837.2949829101562,840.5849609375,-121.09394073486328,941.40771484375,121.09394073486328
835.6500244140625,835.6500244140625,-113.28142547607422,929.68896484375,132.81271362304688
824.1351318359375,817.5552368164062,-97.65640258789062,1031.2515869140623,148.43772888183594
832.3600463867188,827.4251098632812,-97.65640258789062,1031.2515869140623,148.43772888183594
834.0050048828125,834.0050048828125,-109.37516784667969,1035.1578369140623,144.53147888183594
835.6500244140625,837.2949829101562,-97.65640258789062,1035.1578369140623,140.62521362304688
835.6500244140625,837.2949829101562,-82.03137969970703,1031.2515869140623,132.81271362304688
834.0050048828125,843.8749389648438,-82.03137969970703,1031.2515869140623,132.81271362304688
838.9400024414062,837.2949829101562,-82.03137969970703,1031.2515869140623,132.81271362304688
832.3600463867188,822.4901733398438,-93.7501449584961,1019.5328369140624,117.18768310546876
840.5849609375,838.9400024414062,-109.37516784667969,1007.8140869140624,113.28142547607422
827.4251098632812,802.7504272460938,-101.56266021728516,1007.8140869140624,117.18768310546876
827.4251098632812,827.4251098632812,-101.56266021728516,1046.8765869140623,128.90644836425778
827.4251098632812,827.4251098632812,-105.46891784667969,1019.5328369140624,125.0001983642578
835.6500244140625,834.0050048828125,-105.46891784667969,1019.5328369140624,125.0001983642578
845.5198974609375,850.454833984375,-117.18768310546876,992.1890258789062,117.18768310546876
845.5198974609375,850.454833984375,-105.46891784667969,1031.2515869140623,113.28142547607422
840.5849609375,832.3600463867188,-105.46891784667969,1031.2515869140623,113.28142547607422
843.8749389648438,834.0050048828125,-105.46891784667969,1031.2515869140623,113.28142547607422
834.0050048828125,830.715087890625,-93.7501449584961,1031.2515869140623,128.90644836425778
845.5198974609375,822.4901733398438,-117.18768310546876,996.0953369140624,113.28142547607422
845.5198974609375,822.4901733398438,-113.28142547607422,1019.5328369140624,117.18768310546876
835.6500244140625,827.4251098632812,-113.28142547607422,1019.5328369140624,117.18768310546876
840.5849609375,838.9400024414062,-105.46891784667969,984.3765258789062,121.09394073486328
842.2299194335938,838.9400024414062,-93.7501449584961,1015.6265869140624,117.18768310546876
829.070068359375,829.070068359375,-93.7501449584961,1015.6265869140624,117.18768310546876
830.715087890625,832.3600463867188,-109.37516784667969,988.2827758789062,132.81271362304688
840.5849609375,838.9400024414062,-109.37516784667969,988.2827758789062,132.81271362304688
830.715087890625,815.9102783203125,-109.37516784667969,988.2827758789062,132.81271362304688
840.5849609375,847.1648559570312,-105.46891784667969,1015.6265869140624,125.0001983642578
842.2299194335938,837.2949829101562,-93.7501449584961,1011.7203369140624,128.90644836425778
842.2299194335938,837.2949829101562,-117.18768310546876,1007.8140869140624,128.90644836425778
847.1648559570312,848.8098754882812,-117.18768310546876,1007.8140869140624,128.90644836425778
834.0050048828125,835.6500244140625,-117.18768310546876,1007.8140869140624,128.90644836425778
838.9400024414062,825.7801513671875,-101.56266021728516,996.0953369140624,128.90644836425778
838.9400024414062,834.0050048828125,-101.56266021728516,996.0953369140624,128.90644836425778
838.9400024414062,843.8749389648438,-101.56266021728516,996.0953369140624,128.90644836425778
829.070068359375,820.84521484375,-109.37516784667969,1000.0015869140624,136.71896362304688
832.3600463867188,817.5552368164062,-109.37516784667969,1000.0015869140624,136.71896362304688
832.3600463867188,832.3600463867188,-121.09394073486328,996.0953369140624,140.62521362304688
832.3600463867188,827.4251098632812,-128.90644836425778,1003.9078369140624,152.343994140625
832.3600463867188,827.4251098632812,-101.56266021728516,988.2827758789062,160.156494140625
832.3600463867188,827.4251098632812,-101.56266021728516,1015.6265869140624,160.156494140625
835.6500244140625,822.4901733398438,-101.56266021728516,1015.6265869140624,160.156494140625
837.2949829101562,827.4251098632812,-101.56266021728516,1015.6265869140624,160.156494140625
847.1648559570312,840.5849609375,-132.81271362304688,1015.6265869140624,183.5940399169922
838.9400024414062,843.8749389648438,-136.71896362304688,1000.0015869140624,191.40655517578125
838.9400024414062,843.8749389648438,-109.37516784667969,972.6577758789062,187.5002899169922
835.6500244140625,830.715087890625,-109.37516784667969,972.6577758789062,187.5002899169922
835.6500244140625,830.715087890625,-109.37516784667969,1015.6265869140624,187.5002899169922
835.6500244140625,822.4901733398438,-97.65640258789062,976.5640258789062,187.5002899169922
832.3600463867188,845.5198974609375,-97.65640258789062,988.2827758789062,171.87527465820312
832.3600463867188,845.5198974609375,-101.56266021728516,1011.7203369140624,171.87527465820312
837.2949829101562,832.3600463867188,-117.18768310546876,1027.3453369140623,179.68777465820312
835.6500244140625,824.1351318359375,-121.09394073486328,992.1890258789062,187.5002899169922
835.6500244140625,824.1351318359375,-101.56266021728516,992.1890258789062,187.5002899169922
840.5849609375,820.84521484375,-101.56266021728516,992.1890258789062,187.5002899169922
842.2299194335938,819.2001953125,-97.65640258789062,1019.5328369140624,171.87527465820312
837.2949829101562,814.2652587890625,-93.7501449584961,996.0953369140624,175.78152465820312
837.2949829101562,855.3897705078125,-74.21886444091797,1046.8765869140623,171.87527465820312
838.9400024414062,855.3897705078125,-85.93763732910156,1003.9078369140624,167.96900939941406
840.5849609375,850.454833984375,-85.93763732910156,1003.9078369140624,167.96900939941406
830.715087890625,829.070068359375,-78.1251220703125,1003.9078369140624,171.87527465820312
830.715087890625,829.070068359375,-78.1251220703125,1023.4390869140624,167.96900939941406
842.2299194335938,848.8098754882812,-78.1251220703125,1023.4390869140624,167.96900939941406
843.8749389648438,843.8749389648438,-113.28142547607422,984.3765258789062,167.96900939941406
837.2949829101562,830.715087890625,-101.56266021728516,984.3765258789062,167.96900939941406
843.8749389648438,848.8098754882812,-101.56266021728516,984.3765258789062,167.96900939941406
837.2949829101562,838.9400024414062,-89.84388732910156,1031.2515869140623,156.250244140625
838.9400024414062,843.8749389648438,-89.84388732910156,1031.2515869140623,156.250244140625
830.715087890625,819.2001953125,-105.46891784667969,996.0953369140624,156.250244140625
830.715087890625,819.2001953125,-89.84388732910156,1031.2515869140623,156.250244140625
838.9400024414062,842.2299194335938,-89.84388732910156,1031.2515869140623,156.250244140625
840.5849609375,843.8749389648438,-85.93763732910156,1011.7203369140624,144.53147888183594
842.2299194335938,838.9400024414062,-85.93763732910156,1011.7203369140624,144.53147888183594
832.3600463867188,837.2949829101562,-85.93763732910156,1011.7203369140624,144.53147888183594
837.2949829101562,834.0050048828125,-70.31260681152344,1000.0015869140624,140.62521362304688
842.2299194335938,835.6500244140625,-70.31260681152344,1000.0015869140624,140.62521362304688
835.6500244140625,824.1351318359375,-82.03137969970703,1027.3453369140623,136.71896362304688
835.6500244140625,824.1351318359375,-78.1251220703125,1023.4390869140624,136.71896362304688
837.2949829101562,845.5198974609375,-62.5000991821289,1015.6265869140624,125.0001983642578
838.9400024414062,834.0050048828125,-62.5000991821289,1015.6265869140624,125.0001983642578
843.8749389648438,832.3600463867188,-62.5000991821289,1015.6265869140624,125.0001983642578
829.070068359375,835.6500244140625,-58.59384155273438,1019.5328369140624,113.28142547607422
837.2949829101562,815.9102783203125,-66.40635681152344,1011.7203369140624,117.18768310546876
847.1648559570312,829.070068359375,-66.40635681152344,1011.7203369140624,117.18768310546876
847.1648559570312,829.070068359375,-66.40635681152344,1019.5328369140624,113.28142547607422
847.1648559570312,829.070068359375,-66.40635681152344,1007.8140869140624,117.18768310546876
820.84521484375,817.5552368164062,-66.40635681152344,1007.8140869140624,117.18768310546876
832.3600463867188,819.2001953125,-46.87507247924805,1015.6265869140624,125.0001983642578
838.9400024414062,840.5849609375,-66.40635681152344,996.0953369140624,113.28142547607422
838.9400024414062,830.715087890625,-66.40635681152344,1023.4390869140624,117.18768310546876
838.9400024414062,827.4251098632812,-70.31260681152344,1023.4390869140624,125.0001983642578
837.2949829101562,829.070068359375,-62.5000991821289,1027.3453369140623,113.28142547607422
842.2299194335938,843.8749389648438,-62.5000991821289,1027.3453369140623,113.28142547607422
838.9400024414062,837.2949829101562,-74.21886444091797,1011.7203369140624,125.0001983642578
835.6500244140625,824.1351318359375,-74.21886444091797,1011.7203369140624,125.0001983642578
840.5849609375,832.3600463867188,-78.1251220703125,1007.8140869140624,121.09394073486328
843.8749389648438,820.84521484375,-78.1251220703125,1007.8140869140624,121.09394073486328
843.8749389648438,820.84521484375,-74.21886444091797,1007.8140869140624,128.90644836425778
847.1648559570312,834.0050048828125,-82.03137969970703,1031.2515869140623,117.18768310546876
832.3600463867188,827.4251098632812,-82.03137969970703,1031.2515869140623,117.18768310546876
834.0050048828125,822.4901733398438,-82.03137969970703,1011.7203369140624,109.37516784667969
837.2949829101562,837.2949829101562,-66.40635681152344,1023.4390869140624,113.28142547607422
829.070068359375,838.9400024414062,-62.5000991821289,1019.5328369140624,113.28142547607422
825.7801513671875,834.0050048828125,-58.59384155273438,1039.0640869140623,101.56266021728516
825.7801513671875,834.0050048828125,-50.78133010864258,1023.4390869140624,101.56266021728516
838.9400024414062,824.1351318359375,-58.59384155273438,1019.5328369140624,105.46891784667969
830.715087890625,838.9400024414062,-58.59384155273438,1019.5328369140624,105.46891784667969
824.1351318359375,842.2299194335938,-46.87507247924805,1015.6265869140624,105.46891784667969
824.1351318359375,838.9400024414062,-46.87507247924805,1015.6265869140624,105.46891784667969
830.715087890625,825.7801513671875,-70.31260681152344,988.2827758789062,101.56266021728516
834.0050048828125,822.4901733398438,-70.31260681152344,1015.6265869140624,101.56266021728516
834.0050048828125,822.4901733398438,-58.59384155273438,1019.5328369140624,105.46891784667969
834.0050048828125,822.4901733398438,-50.78133010864258,1035.1578369140623,109.37516784667969
835.6500244140625,814.2652587890625,-42.96881866455078,1031.2515869140623,97.65640258789062
835.6500244140625,814.2652587890625,-35.15630340576172,1011.7203369140624,97.65640258789062
834.0050048828125,807.6853637695312,-35.15630340576172,1011.7203369140624,97.65640258789062
835.6500244140625,801.1054077148438,-35.15630340576172,1011.7203369140624,97.65640258789062
847.1648559570312,822.4901733398438,-42.96881866455078,1007.8140869140624,101.56266021728516
829.070068359375,814.2652587890625,-42.96881866455078,1007.8140869140624,101.56266021728516
820.84521484375,814.2652587890625,-58.59384155273438,1027.3453369140623,93.7501449584961
820.84521484375,814.2652587890625,-58.59384155273438,1019.5328369140624,97.65640258789062
824.1351318359375,814.2652587890625,-74.21886444091797,1003.9078369140624,97.65640258789062
834.0050048828125,840.5849609375,-74.21886444091797,1003.9078369140624,97.65640258789062
829.070068359375,830.715087890625,-50.78133010864258,1003.9078369140624,97.65640258789062
824.1351318359375,817.5552368164062,-35.15630340576172,1027.3453369140623,82.03137969970703
825.7801513671875,814.2652587890625,-35.15630340576172,1027.3453369140623,82.03137969970703
832.3600463867188,842.2299194335938,-31.25004959106445,1050.7828369140623,93.7501449584961
829.070068359375,832.3600463867188,-35.15630340576172,1054.689208984375,93.7501449584961
835.6500244140625,834.0050048828125,-54.687583923339844,1046.8765869140623,89.84388732910156
840.5849609375,832.3600463867188,-70.31260681152344,1019.5328369140624,101.56266021728516
835.6500244140625,819.2001953125,-70.31260681152344,1019.5328369140624,101.56266021728516
834.0050048828125,814.2652587890625,-78.1251220703125,996.0953369140624,101.56266021728516
829.070068359375,814.2652587890625,-113.28142547607422,1007.8140869140624,97.65640258789062
830.715087890625,840.5849609375,-113.28142547607422,1000.0015869140624,101.56266021728516
822.4901733398438,827.4251098632812,-105.46891784667969,1003.9078369140624,105.46891784667969
822.4901733398438,827.4251098632812,-97.65640258789062,1015.6265869140624,109.37516784667969
820.84521484375,847.1648559570312,-93.7501449584961,1039.0640869140623,109.37516784667969
820.84521484375,860.32470703125,-97.65640258789062,1042.9703369140623,113.28142547607422
820.84521484375,865.2596435546875,-93.7501449584961,1027.3453369140623,113.28142547607422
825.7801513671875,850.454833984375,-93.7501449584961,1027.3453369140623,113.28142547607422
820.84521484375,845.5198974609375,-121.09394073486328,1000.0015869140624,58.59384155273438
832.3600463867188,835.6500244140625,-121.09394073486328,1000.0015869140624,58.59384155273438
830.715087890625,817.5552368164062,-140.62521362304688,1011.7203369140624,42.96881866455078
830.715087890625,817.5552368164062,-175.78152465820312,984.3765258789062,42.96881866455078
834.0050048828125,822.4901733398438,-175.78152465820312,984.3765258789062,42.96881866455078
838.9400024414062,829.070068359375,-175.78152465820312,984.3765258789062,42.96881866455078
843.8749389648438,827.4251098632812,-187.5002899169922,988.2827758789062,39.06256103515625
843.8749389648438,827.4251098632812,-171.87527465820312,1003.9078369140624,39.06256103515625
830.715087890625,819.2001953125,-203.1253204345703,1000.0015869140624,39.06256103515625
830.715087890625,819.2001953125,-164.06275939941406,992.1890258789062,82.03137969970703
840.5849609375,843.8749389648438,-164.06275939941406,992.1890258789062,82.03137969970703
845.5198974609375,814.2652587890625,-101.56266021728516,1039.0640869140623,136.71896362304688
838.9400024414062,819.2001953125,-46.87507247924805,1000.0015869140624,171.87527465820312
838.9400024414062,819.2001953125,-50.78133010864258,972.6577758789062,187.5002899169922
842.2299194335938,857.0347290039062,-50.78133010864258,972.6577758789062,187.5002899169922
835.6500244140625,848.8098754882812,-62.5000991821289,1031.2515869140623,179.68777465820312
835.6500244140625,848.8098754882812,-54.687583923339844,1019.5328369140624,175.78152465820312
825.7801513671875,840.5849609375,-54.687583923339844,1019.5328369140624,175.78152465820312
825.7801513671875,820.84521484375,-74.21886444091797,1046.8765869140623,156.250244140625
829.070068359375,834.0050048828125,-70.31260681152344,1023.4390869140624,160.156494140625
834.0050048828125,834.0050048828125,-70.31260681152344,1023.4390869140624,160.156494140625
838.9400024414062,843.8749389648438,-82.03137969970703,1042.9703369140623,121.09394073486328
825.7801513671875,810.9752807617188,-82.03137969970703,1042.9703369140623,121.09394073486328
835.6500244140625,840.5849609375,-82.03137969970703,1003.9078369140624,125.0001983642578
835.6500244140625,840.5849609375,-82.03137969970703,1019.5328369140624,125.0001983642578
834.0050048828125,842.2299194335938,-82.03137969970703,1019.5328369140624,125.0001983642578
825.7801513671875,827.4251098632812,-89.84388732910156,984.3765258789062,121.09394073486328
832.3600463867188,832.3600463867188,-93.7501449584961,1019.5328369140624,113.28142547607422
832.3600463867188,835.6500244140625,-93.7501449584961,1019.5328369140624,113.28142547607422
842.2299194335938,847.1648559570312,-113.28142547607422,1003.9078369140624,101.56266021728516
837.2949829101562,830.715087890625,-97.65640258789062,1027.3453369140623,113.28142547607422
829.070068359375,822.4901733398438,-78.1251220703125,1046.8765869140623,113.28142547607422
829.070068359375,832.3600463867188,-85.93763732910156,1046.8765869140623,117.18768310546876
834.0050048828125,830.715087890625,-97.65640258789062,1058.595458984375,97.65640258789062
832.3600463867188,835.6500244140625,-66.40635681152344,1054.689208984375,97.65640258789062
838.9400024414062,837.2949829101562,-74.21886444091797,1019.5328369140624,105.46891784667969
827.4251098632812,822.4901733398438,-97.65640258789062,1031.2515869140623,105.46891784667969
843.8749389648438,842.2299194335938,-89.84388732910156,1042.9703369140623,117.18768310546876
838.9400024414062,829.070068359375,-105.46891784667969,972.6577758789062,121.09394073486328
835.6500244140625,822.4901733398438,-109.37516784667969,1000.0015869140624,136.71896362304688
832.3600463867188,814.2652587890625,-105.46891784667969,1039.0640869140623,140.62521362304688
829.070068359375,822.4901733398438,-105.46891784667969,1039.0640869140623,140.62521362304688
840.5849609375,835.6500244140625,-97.65640258789062,1003.9078369140624,156.250244140625
829.070068359375,829.070068359375,-113.28142547607422,1000.0015869140624,136.71896362304688
830.715087890625,837.2949829101562,-105.46891784667969,988.2827758789062,148.43772888183594
830.715087890625,837.2949829101562,-101.56266021728516,980.4702758789062,152.343994140625
830.715087890625,822.4901733398438,-117.18768310546876,1007.8140869140624,156.250244140625
837.2949829101562,840.5849609375,-117.18768310546876,1007.8140869140624,156.250244140625
840.5849609375,842.2299194335938,-109.37516784667969,1019.5328369140624,164.06275939941406
829.070068359375,812.6203002929688,-109.37516784667969,1019.5328369140624,164.06275939941406
832.3600463867188,819.2001953125,-109.37516784667969,1019.5328369140624,164.06275939941406
838.9400024414062,825.7801513671875,-113.28142547607422,1007.8140869140624,156.250244140625
832.3600463867188,825.7801513671875,-113.28142547607422,1007.8140869140624,156.250244140625
832.3600463867188,825.7801513671875,-117.18768310546876,1019.5328369140624,148.43772888183594
832.3600463867188,830.715087890625,-117.18768310546876,1007.8140869140624,156.250244140625
832.3600463867188,830.715087890625,-105.46891784667969,1007.8140869140624,164.06275939941406
832.3600463867188,830.715087890625,-105.46891784667969,1000.0015869140624,160.156494140625
827.4251098632812,815.9102783203125,-105.46891784667969,1000.0015869140624,160.156494140625
838.9400024414062,827.4251098632812,-105.46891784667969,1000.0015869140624,160.156494140625
835.6500244140625,814.2652587890625,-125.0001983642578,1000.0015869140624,160.156494140625
838.9400024414062,832.3600463867188,-121.09394073486328,1011.7203369140624,156.250244140625
838.9400024414062,832.3600463867188,-125.0001983642578,1007.8140869140624,160.156494140625
830.715087890625,822.4901733398438,-125.0001983642578,1007.8140869140624,160.156494140625
834.0050048828125,829.070068359375,-125.0001983642578,1007.8140869140624,160.156494140625
827.4251098632812,815.9102783203125,-101.56266021728516,1015.6265869140624,160.156494140625
838.9400024414062,830.715087890625,-144.53147888183594,1031.2515869140623,140.62521362304688
845.5198974609375,819.2001953125,-148.43772888183594,996.0953369140624,132.81271362304688
843.8749389648438,829.070068359375,-117.18768310546876,1031.2515869140623,164.06275939941406
843.8749389648438,829.070068359375,-140.62521362304688,1015.6265869140624,144.53147888183594
845.5198974609375,845.5198974609375,-140.62521362304688,1015.6265869140624,144.53147888183594
834.0050048828125,876.7745361328125,-140.62521362304688,1015.6265869140624,144.53147888183594
835.6500244140625,878.4194946289062,-132.81271362304688,996.0953369140624,136.71896362304688
842.2299194335938,871.839599609375,-132.81271362304688,996.0953369140624,136.71896362304688
835.6500244140625,858.6797485351562,-140.62521362304688,996.0953369140624,128.90644836425778
847.1648559570312,838.9400024414062,-140.62521362304688,996.0953369140624,128.90644836425778
840.5849609375,822.4901733398438,-156.250244140625,984.3765258789062,140.62521362304688
840.5849609375,822.4901733398438,-148.43772888183594,1000.0015869140624,140.62521362304688
837.2949829101562,829.070068359375,-136.71896362304688,1023.4390869140624,125.0001983642578
837.2949829101562,829.070068359375,-128.90644836425778,1019.5328369140624,128.90644836425778
843.8749389648438,829.070068359375,-128.90644836425778,1019.5328369140624,128.90644836425778
834.0050048828125,815.9102783203125,-144.53147888183594,992.1890258789062,144.53147888183594
835.6500244140625,832.3600463867188,-113.28142547607422,1007.8140869140624,136.71896362304688
837.2949829101562,819.2001953125,-109.37516784667969,1003.9078369140624,121.09394073486328
845.5198974609375,838.9400024414062,-109.37516784667969,1003.9078369140624,121.09394073486328
845.5198974609375,838.9400024414062,-121.09394073486328,1000.0015869140624,117.18768310546876
825.7801513671875,832.3600463867188,-132.81271362304688,988.2827758789062,109.37516784667969
825.7801513671875,832.3600463867188,-113.28142547607422,1003.9078369140624,117.18768310546876
832.3600463867188,850.454833984375,-117.18768310546876,1015.6265869140624,105.46891784667969
827.4251098632812,837.2949829101562,-117.18768310546876,1015.6265869140624,105.46891784667969
837.2949829101562,820.84521484375,-101.56266021728516,996.0953369140624,109.37516784667969
838.9400024414062,824.1351318359375,-101.56266021728516,996.0953369140624,109.37516784667969
843.8749389648438,838.9400024414062,-101.56266021728516,1023.4390869140624,109.37516784667969
843.8749389648438,838.9400024414062,-97.65640258789062,1015.6265869140624,117.18768310546876
840.5849609375,830.715087890625,-101.56266021728516,1027.3453369140623,113.28142547607422
827.4251098632812,825.7801513671875,-97.65640258789062,1027.3453369140623,109.37516784667969
832.3600463867188,838.9400024414062,-85.93763732910156,1011.7203369140624,109.37516784667969
837.2949829101562,830.715087890625,-85.93763732910156,1011.7203369140624,109.37516784667969
838.9400024414062,838.9400024414062,-105.46891784667969,1007.8140869140624,113.28142547607422
838.9400024414062,838.9400024414062,-97.65640258789062,1027.3453369140623,105.46891784667969
837.2949829101562,845.5198974609375,-97.65640258789062,1027.3453369140623,105.46891784667969
834.0050048828125,825.7801513671875,-97.65640258789062,1031.2515869140623,105.46891784667969
837.2949829101562,835.6500244140625,-97.65640258789062,1031.2515869140623,105.46891784667969
827.4251098632812,829.070068359375,-97.65640258789062,1023.4390869140624,93.7501449584961
827.4251098632812,829.070068359375,-105.46891784667969,1015.6265869140624,89.84388732910156
824.1351318359375,820.84521484375,-105.46891784667969,1015.6265869140624,89.84388732910156
832.3600463867188,845.5198974609375,-105.46891784667969,1015.6265869140624,89.84388732910156
827.4251098632812,837.2949829101562,-82.03137969970703,1046.8765869140623,82.03137969970703
830.715087890625,838.9400024414062,-82.03137969970703,1046.8765869140623,82.03137969970703
838.9400024414062,834.0050048828125,-113.28142547607422,1007.8140869140624,85.93763732910156
843.8749389648438,840.5849609375,-109.37516784667969,1003.9078369140624,78.1251220703125
835.6500244140625,825.7801513671875,-89.84388732910156,1011.7203369140624,74.21886444091797
835.6500244140625,825.7801513671875,-66.40635681152344,1035.1578369140623,74.21886444091797
835.6500244140625,825.7801513671875,-82.03137969970703,1035.1578369140623,70.31260681152344
837.2949829101562,838.9400024414062,-82.03137969970703,1035.1578369140623,70.31260681152344
834.0050048828125,822.4901733398438,-89.84388732910156,1019.5328369140624,58.59384155273438
845.5198974609375,848.8098754882812,-89.84388732910156,1019.5328369140624,58.59384155273438
842.2299194335938,843.8749389648438,-97.65640258789062,1015.6265869140624,58.59384155273438
832.3600463867188,832.3600463867188,-82.03137969970703,1031.2515869140623,42.96881866455078
832.3600463867188,825.7801513671875,-42.96881866455078,1046.8765869140623,46.87507247924805
832.3600463867188,825.7801513671875,-58.59384155273438,1019.5328369140624,42.96881866455078
832.3600463867188,834.0050048828125,-58.59384155273438,1019.5328369140624,42.96881866455078
840.5849609375,840.5849609375,-58.59384155273438,1019.5328369140624,42.96881866455078
832.3600463867188,840.5849609375,-58.59384155273438,1015.6265869140624,66.40635681152344
829.070068359375,824.1351318359375,-58.59384155273438,1015.6265869140624,66.40635681152344
829.070068359375,822.4901733398438,-58.59384155273438,1015.6265869140624,66.40635681152344
829.070068359375,822.4901733398438,-82.03137969970703,1023.4390869140624,82.03137969970703
835.6500244140625,840.5849609375,-82.03137969970703,1023.4390869140624,82.03137969970703
838.9400024414062,843.8749389648438,-89.84388732910156,984.3765258789062,93.7501449584961
838.9400024414062,845.5198974609375,-85.93763732910156,1019.5328369140624,132.81271362304688
837.2949829101562,838.9400024414062,-89.84388732910156,1023.4390869140624,132.81271362304688
837.2949829101562,838.9400024414062,-93.7501449584961,1007.8140869140624,128.90644836425778
832.3600463867188,829.070068359375,-93.7501449584961,1007.8140869140624,128.90644836425778
825.7801513671875,824.1351318359375,-62.5000991821289,1027.3453369140623,179.68777465820312
825.7801513671875,824.1351318359375,-70.31260681152344,1015.6265869140624,175.78152465820312
834.0050048828125,843.8749389648438,-70.31260681152344,1015.6265869140624,175.78152465820312
834.0050048828125,835.6500244140625,-70.31260681152344,1015.6265869140624,175.78152465820312
843.8749389648438,827.4251098632812,-82.03137969970703,984.3765258789062,210.93783569335938
838.9400024414062,830.715087890625,-82.03137969970703,984.3765258789062,210.93783569335938
843.8749389648438,840.5849609375,-70.31260681152344,1031.2515869140623,195.31280517578125
842.2299194335938,830.715087890625,-70.31260681152344,1031.2515869140623,195.31280517578125
837.2949829101562,832.3600463867188,-82.03137969970703,976.5640258789062,210.93783569335938
837.2949829101562,830.715087890625,-66.40635681152344,1007.8140869140624,210.93783569335938
837.2949829101562,817.5552368164062,-66.40635681152344,1007.8140869140624,210.93783569335938
845.5198974609375,835.6500244140625,-58.59384155273438,1000.0015869140624,234.3753662109375
835.6500244140625,820.84521484375,-58.59384155273438,1000.0015869140624,234.3753662109375
834.0050048828125,830.715087890625,-58.59384155273438,1000.0015869140624,234.3753662109375
834.0050048828125,820.84521484375,-62.5000991821289,996.0953369140624,230.4691162109375
830.715087890625,848.8098754882812,-39.06256103515625,1007.8140869140624,265.6254272460937
834.0050048828125,852.0997924804688,-39.06256103515625,1007.8140869140624,265.6254272460937
834.0050048828125,847.1648559570312,-3.9062561988830566,1039.0640869140623,273.4379272460937
840.5849609375,832.3600463867188,-3.9062561988830566,1039.0640869140623,273.4379272460937
832.3600463867188,815.9102783203125,-7.812512397766112,1007.8140869140624,281.2504272460937
832.3600463867188,815.9102783203125,-15.625024795532227,1027.3453369140623,261.71914672851557
837.2949829101562,834.0050048828125,-15.625024795532227,1027.3453369140623,261.71914672851557
825.7801513671875,829.070068359375,-54.687583923339844,984.3765258789062,257.81289672851557
847.1648559570312,789.590576171875,-50.78133010864258,984.3765258789062,246.09413146972656
847.1648559570312,789.590576171875,-78.1251220703125,1000.0015869140624,218.75033569335938
852.0997924804688,797.8154907226562,-109.37516784667969,984.3765258789062,214.84408569335938
848.8098754882812,810.9752807617188,-82.03137969970703,980.4702758789062,214.84408569335938
843.8749389648438,820.84521484375,-121.09394073486328,1007.8140869140624,175.78152465820312
840.5849609375,820.84521484375,-121.09394073486328,1007.8140869140624,175.78152465820312
845.5198974609375,835.6500244140625,-105.46891784667969,1003.9078369140624,167.96900939941406
835.6500244140625,822.4901733398438,-109.37516784667969,1019.5328369140624,171.87527465820312
838.9400024414062,834.0050048828125,-144.53147888183594,972.6577758789062,160.156494140625
842.2299194335938,834.0050048828125,-117.18768310546876,1011.7203369140624,164.06275939941406
838.9400024414062,834.0050048828125,-152.343994140625,984.3765258789062,136.71896362304688
838.9400024414062,834.0050048828125,-144.53147888183594,1000.0015869140624,140.62521362304688
837.2949829101562,842.2299194335938,-144.53147888183594,1000.0015869140624,140.62521362304688
835.6500244140625,830.715087890625,-144.53147888183594,996.0953369140624,117.18768310546876
835.6500244140625,830.715087890625,-152.343994140625,988.2827758789062,117.18768310546876
838.9400024414062,837.2949829101562,-152.343994140625,988.2827758789062,117.18768310546876
838.9400024414062,838.9400024414062,-140.62521362304688,1023.4390869140624,101.56266021728516
835.6500244140625,835.6500244140625,-132.81271362304688,1007.8140869140624,78.1251220703125
827.4251098632812,819.2001953125,-132.81271362304688,1007.8140869140624,78.1251220703125
835.6500244140625,847.1648559570312,-144.53147888183594,1003.9078369140624,82.03137969970703
835.6500244140625,847.1648559570312,-113.28142547607422,1019.5328369140624,85.93763732910156
842.2299194335938,837.2949829101562,-105.46891784667969,1003.9078369140624,82.03137969970703
825.7801513671875,827.4251098632812,-105.46891784667969,1003.9078369140624,82.03137969970703
822.4901733398438,810.9752807617188,-132.81271362304688,992.1890258789062,62.5000991821289
843.8749389648438,863.6146850585938,-132.81271362304688,992.1890258789062,62.5000991821289
838.9400024414062,848.8098754882812,-85.93763732910156,1027.3453369140623,62.5000991821289
834.0050048828125,837.2949829101562,-105.46891784667969,1027.3453369140623,46.87507247924805
829.070068359375,835.6500244140625,-121.09394073486328,1003.9078369140624,50.78133010864258
829.070068359375,835.6500244140625,-97.65640258789062,1000.0015869140624,62.5000991821289
832.3600463867188,848.8098754882812,-93.7501449584961,1042.9703369140623,70.31260681152344
835.6500244140625,837.2949829101562,-93.7501449584961,1042.9703369140623,70.31260681152344
835.6500244140625,838.9400024414062,-113.28142547607422,1019.5328369140624,46.87507247924805
835.6500244140625,840.5849609375,-101.56266021728516,1011.7203369140624,58.59384155273438
837.2949829101562,861.9697265625,-82.03137969970703,1023.4390869140624,42.96881866455078
837.2949829101562,850.454833984375,-74.21886444091797,1035.1578369140623,74.21886444091797
827.4251098632812,832.3600463867188,-78.1251220703125,1031.2515869140623,74.21886444091797
827.4251098632812,832.3600463867188,-93.7501449584961,1007.8140869140624,82.03137969970703
827.4251098632812,832.3600463867188,-89.84388732910156,1003.9078369140624,89.84388732910156
832.3600463867188,843.8749389648438,-89.84388732910156,1003.9078369140624,89.84388732910156
837.2949829101562,855.3897705078125,-89.84388732910156,1003.9078369140624,89.84388732910156
837.2949829101562,827.4251098632812,-89.84388732910156,1023.4390869140624,97.65640258789062
829.070068359375,825.7801513671875,-89.84388732910156,1011.7203369140624,89.84388732910156
829.070068359375,812.6203002929688,-93.7501449584961,1011.7203369140624,105.46891784667969
829.070068359375,827.4251098632812,-93.7501449584961,1011.7203369140624,105.46891784667969
838.9400024414062,843.8749389648438,-82.03137969970703,1039.0640869140623,109.37516784667969
838.9400024414062,843.8749389648438,-74.21886444091797,1000.0015869140624,117.18768310546876
830.715087890625,832.3600463867188,-82.03137969970703,1007.8140869140624,121.09394073486328
834.0050048828125,827.4251098632812,-78.1251220703125,1015.6265869140624,128.90644836425778
834.0050048828125,827.4251098632812,-89.84388732910156,1007.8140869140624,128.90644836425778
829.070068359375,829.070068359375,-89.84388732910156,1007.8140869140624,128.90644836425778
837.2949829101562,820.84521484375,-93.7501449584961,1011.7203369140624,128.90644836425778
838.9400024414062,830.715087890625,-93.7501449584961,1011.7203369140624,128.90644836425778
840.5849609375,835.6500244140625,-46.87507247924805,1023.4390869140624,148.43772888183594
835.6500244140625,819.2001953125,-89.84388732910156,1011.7203369140624,148.43772888183594
835.6500244140625,819.2001953125,-89.84388732910156,1015.6265869140624,152.343994140625
837.2949829101562,829.070068359375,-89.84388732910156,1015.6265869140624,152.343994140625
835.6500244140625,837.2949829101562,-89.84388732910156,1015.6265869140624,152.343994140625
832.3600463867188,832.3600463867188,-74.21886444091797,1011.7203369140624,152.343994140625
837.2949829101562,830.715087890625,-74.21886444091797,1011.7203369140624,152.343994140625
837.2949829101562,830.715087890625,-74.21886444091797,1000.0015869140624,156.250244140625
843.8749389648438,840.5849609375,-66.40635681152344,1003.9078369140624,164.06275939941406
830.715087890625,824.1351318359375,-62.5000991821289,1015.6265869140624,164.06275939941406
830.715087890625,824.1351318359375,-46.87507247924805,1003.9078369140624,175.78152465820312
830.715087890625,827.4251098632812,-46.87507247924805,1003.9078369140624,175.78152465820312
845.5198974609375,845.5198974609375,-46.87507247924805,1035.1578369140623,171.87527465820312
834.0050048828125,819.2001953125,-50.78133010864258,1019.5328369140624,175.78152465820312
832.3600463867188,825.7801513671875,-46.87507247924805,1019.5328369140624,171.87527465820312
832.3600463867188,825.7801513671875,-50.78133010864258,1023.4390869140624,167.96900939941406
832.3600463867188,830.715087890625,-50.78133010864258,1023.4390869140624,167.96900939941406
837.2949829101562,827.4251098632812,-54.687583923339844,1015.6265869140624,164.06275939941406
838.9400024414062,840.5849609375,-62.5000991821289,1015.6265869140624,156.250244140625
842.2299194335938,853.7448120117188,-46.87507247924805,1003.9078369140624,164.06275939941406
842.2299194335938,853.7448120117188,-58.59384155273438,1015.6265869140624,152.343994140625
827.4251098632812,827.4251098632812,-58.59384155273438,1015.6265869140624,152.343994140625
835.6500244140625,830.715087890625,-58.59384155273438,1015.6265869140624,152.343994140625
835.6500244140625,830.715087890625,-50.78133010864258,988.2827758789062,144.53147888183594
830.715087890625,820.84521484375,-50.78133010864258,988.2827758789062,144.53147888183594
840.5849609375,838.9400024414062,-62.5000991821289,1015.6265869140624,128.90644836425778
837.2949829101562,837.2949829101562,-54.687583923339844,1019.5328369140624,128.90644836425778
834.0050048828125,842.2299194335938,-42.96881866455078,1015.6265869140624,128.90644836425778
834.0050048828125,842.2299194335938,-31.25004959106445,1031.2515869140623,132.81271362304688
835.6500244140625,837.2949829101562,-31.25004959106445,1031.2515869140623,132.81271362304688
837.2949829101562,837.2949829101562,-42.96881866455078,1023.4390869140624,128.90644836425778
832.3600463867188,835.6500244140625,-35.15630340576172,1019.5328369140624,125.0001983642578
842.2299194335938,845.5198974609375,-46.87507247924805,1007.8140869140624,113.28142547607422
838.9400024414062,827.4251098632812,-46.87507247924805,1007.8140869140624,113.28142547607422
838.9400024414062,827.4251098632812,-66.40635681152344,996.0953369140624,97.65640258789062
838.9400024414062,838.9400024414062,-39.06256103515625,1011.7203369140624,93.7501449584961
830.715087890625,824.1351318359375,-39.06256103515625,1011.7203369140624,93.7501449584961
837.2949829101562,835.6500244140625,-35.15630340576172,1015.6265869140624,101.56266021728516
845.5198974609375,852.0997924804688,-23.437536239624023,1050.7828369140623,97.65640258789062
840.5849609375,832.3600463867188,-23.437536239624023,1050.7828369140623,97.65640258789062
830.715087890625,825.7801513671875,-27.343791961669922,1007.8140869140624,113.28142547607422
840.5849609375,830.715087890625,-27.343791961669922,1007.8140869140624,113.28142547607422
834.0050048828125,850.454833984375,19.531280517578125,1054.689208984375,109.37516784667969
830.715087890625,843.8749389648438,23.437536239624023,1042.9703369140623,113.28142547607422
825.7801513671875,837.2949829101562,23.437536239624023,1042.9703369140623,113.28142547607422
814.2652587890625,870.194580078125,46.87507247924805,1019.5328369140624,125.0001983642578
814.2652587890625,870.194580078125,-27.343791961669922,1015.6265869140624,85.93763732910156
815.9102783203125,853.7448120117188,-27.343791961669922,1015.6265869140624,85.93763732910156
822.4901733398438,871.839599609375,0.0,1019.5328369140624,113.28142547607422
830.715087890625,881.70947265625,-15.625024795532227,1046.8765869140623,97.65640258789062
838.9400024414062,873.4845581054688,-97.65640258789062,996.0953369140624,66.40635681152344
838.9400024414062,873.4845581054688,-97.65640258789062,972.6577758789062,74.21886444091797
835.6500244140625,889.9343872070312,-97.65640258789062,972.6577758789062,74.21886444091797
835.6500244140625,889.9343872070312,-140.62521362304688,1007.8140869140624,85.93763732910156
830.715087890625,834.0050048828125,-136.71896362304688,972.6577758789062,89.84388732910156
837.2949829101562,840.5849609375,-121.09394073486328,1035.1578369140623,105.46891784667969
832.3600463867188,825.7801513671875,-117.18768310546876,1023.4390869140624,109.37516784667969
837.2949829101562,819.2001953125,-113.28142547607422,976.5640258789062,125.0001983642578
843.8749389648438,825.7801513671875,-85.93763732910156,1015.6265869140624,132.81271362304688
843.8749389648438,825.7801513671875,-89.84388732910156,1015.6265869140624,148.43772888183594
843.8749389648438,834.0050048828125,-89.84388732910156,1015.6265869140624,148.43772888183594
840.5849609375,827.4251098632812,-93.7501449584961,1023.4390869140624,125.0001983642578
840.5849609375,827.4251098632812,-58.59384155273438,1035.1578369140623,128.90644836425778
825.7801513671875,860.32470703125,-58.59384155273438,1035.1578369140623,128.90644836425778
835.6500244140625,863.6146850585938,-140.62521362304688,1062.501708984375,113.28142547607422
827.4251098632812,893.2243041992188,-140.62521362304688,1062.501708984375,113.28142547607422
829.070068359375,1016.5978393554688,-97.65640258789062,1007.8140869140624,160.156494140625
829.070068359375,1016.5978393554688,-187.5002899169922,1011.7203369140624,152.343994140625
847.1648559570312,1024.82275390625,-39.06256103515625,1039.0640869140623,382.8131103515625
847.1648559570312,1024.82275390625,-85.93763732910156,1035.1578369140623,316.40673828125
845.5198974609375,978.7633056640624,-85.93763732910156,1035.1578369140623,316.40673828125
835.6500244140625,931.0588989257812,-85.93763732910156,1035.1578369140623,316.40673828125
817.5552368164062,871.839599609375,23.437536239624023,1035.1578369140623,292.9692077636719
834.0050048828125,908.0291748046876,23.437536239624023,1035.1578369140623,292.9692077636719
825.7801513671875,893.2243041992188,-46.87507247924805,980.4702758789062,277.3441772460937
825.7801513671875,893.2243041992188,-42.96881866455078,937.50146484375,261.71914672851557
827.4251098632812,858.6797485351562,-66.40635681152344,957.0327758789062,265.6254272460937
838.9400024414062,843.8749389648438,-82.03137969970703,933.59521484375,281.2504272460937
838.9400024414062,842.2299194335938,-42.96881866455078,976.5640258789062,296.8754577636719
838.9400024414062,840.5849609375,-85.93763732910156,976.5640258789062,269.5316772460937
840.5849609375,838.9400024414062,-74.21886444091797,1003.9078369140624,277.3441772460937
832.3600463867188,837.2949829101562,-74.21886444091797,1003.9078369140624,277.3441772460937
832.3600463867188,837.2949829101562,-39.06256103515625,1035.1578369140623,246.09413146972656
843.8749389648438,863.6146850585938,35.15630340576172,1023.4390869140624,277.3441772460937
835.6500244140625,835.6500244140625,-39.06256103515625,1019.5328369140624,210.93783569335938
825.7801513671875,842.2299194335938,46.87507247924805,1046.8765869140623,250.0003967285156
838.9400024414062,855.3897705078125,-50.78133010864258,1003.9078369140624,203.1253204345703
834.0050048828125,843.8749389648438,-50.78133010864258,1003.9078369140624,203.1253204345703
840.5849609375,832.3600463867188,23.437536239624023,992.1890258789062,218.75033569335938
840.5849609375,830.715087890625,-23.437536239624023,1007.8140869140624,234.3753662109375
840.5849609375,847.1648559570312,-23.437536239624023,1007.8140869140624,234.3753662109375
840.5849609375,838.9400024414062,-23.437536239624023,1007.8140869140624,234.3753662109375
840.5849609375,842.2299194335938,-74.21886444091797,972.6577758789062,277.3441772460937
834.0050048828125,835.6500244140625,-113.28142547607422,988.2827758789062,261.71914672851557
834.0050048828125,835.6500244140625,-140.62521362304688,937.50146484375,250.0003967285156
837.2949829101562,838.9400024414062,-140.62521362304688,937.50146484375,250.0003967285156
842.2299194335938,824.1351318359375,-128.90644836425778,941.40771484375,257.81289672851557
842.2299194335938,824.1351318359375,-152.343994140625,945.31396484375,246.09413146972656
830.715087890625,824.1351318359375,-152.343994140625,945.31396484375,246.09413146972656
830.715087890625,819.2001953125,-93.7501449584961,984.3765258789062,269.5316772460937
825.7801513671875,804.3953857421875,-74.21886444091797,1007.8140869140624,250.0003967285156
845.5198974609375,825.7801513671875,-74.21886444091797,1007.8140869140624,250.0003967285156
835.6500244140625,815.9102783203125,-70.31260681152344,984.3765258789062,269.5316772460937
838.9400024414062,840.5849609375,-70.31260681152344,984.3765258789062,269.5316772460937
838.9400024414062,835.6500244140625,-39.06256103515625,1027.3453369140623,250.0003967285156
838.9400024414062,824.1351318359375,-58.59384155273438,1011.7203369140624,246.09413146972656
835.6500244140625,817.5552368164062,-58.59384155273438,1011.7203369140624,246.09413146972656
838.9400024414062,832.3600463867188,-66.40635681152344,949.22021484375,265.6254272460937
840.5849609375,845.5198974609375,-66.40635681152344,949.22021484375,265.6254272460937
834.0050048828125,819.2001953125,-62.5000991821289,1000.0015869140624,273.4379272460937
837.2949829101562,835.6500244140625,-62.5000991821289,992.1890258789062,265.6254272460937
847.1648559570312,848.8098754882812,-62.5000991821289,992.1890258789062,265.6254272460937
847.1648559570312,848.8098754882812,-113.28142547607422,1000.0015869140624,246.09413146972656
838.9400024414062,819.2001953125,-105.46891784667969,1003.9078369140624,250.0003967285156
838.9400024414062,840.5849609375,-85.93763732910156,984.3765258789062,250.0003967285156
834.0050048828125,819.2001953125,-82.03137969970703,980.4702758789062,246.09413146972656
834.0050048828125,827.4251098632812,-82.03137969970703,1000.0015869140624,222.65660095214844
840.5849609375,843.8749389648438,-82.03137969970703,1000.0015869140624,222.65660095214844
838.9400024414062,848.8098754882812,-82.03137969970703,996.0953369140624,222.65660095214844
834.0050048828125,834.0050048828125,-85.93763732910156,1007.8140869140624,207.0315704345703
834.0050048828125,834.0050048828125,-78.1251220703125,992.1890258789062,203.1253204345703
834.0050048828125,834.0050048828125,-78.1251220703125,1007.8140869140624,218.75033569335938
840.5849609375,861.9697265625,-78.1251220703125,1007.8140869140624,218.75033569335938
838.9400024414062,834.0050048828125,-54.687583923339844,1023.4390869140624,214.84408569335938
830.715087890625,832.3600463867188,-93.7501449584961,1007.8140869140624,203.1253204345703
834.0050048828125,857.0347290039062,-93.7501449584961,1007.8140869140624,203.1253204345703
832.3600463867188,832.3600463867188,-89.84388732910156,976.5640258789062,167.96900939941406
835.6500244140625,832.3600463867188,-54.687583923339844,1046.8765869140623,171.87527465820312
840.5849609375,866.9046630859375,-50.78133010864258,972.6577758789062,175.78152465820312
838.9400024414062,861.9697265625,-101.56266021728516,953.12646484375,156.250244140625
837.2949829101562,868.5496215820312,-125.0001983642578,988.2827758789062,195.31280517578125
837.2949829101562,868.5496215820312,-46.87507247924805,1027.3453369140623,214.84408569335938
822.4901733398438,922.833984375,-46.87507247924805,1027.3453369140623,214.84408569335938
822.4901733398438,922.833984375,-42.96881866455078,1015.6265869140624,199.21905517578125
829.070068359375,939.2837524414062,-42.96881866455078,1015.6265869140624,199.21905517578125
835.6500244140625,942.57373046875,-15.625024795532227,1003.9078369140624,203.1253204345703
835.6500244140625,942.57373046875,-74.21886444091797,964.8452758789062,199.21905517578125
827.4251098632812,903.09423828125,-74.21886444091797,964.8452758789062,199.21905517578125
837.2949829101562,817.5552368164062,-117.18768310546876,976.5640258789062,187.5002899169922
843.8749389648438,835.6500244140625,-117.18768310546876,976.5640258789062,187.5002899169922
837.2949829101562,806.0403442382812,-66.40635681152344,1015.6265869140624,187.5002899169922
829.070068359375,799.46044921875,-66.40635681152344,980.4702758789062,199.21905517578125
834.0050048828125,799.46044921875,-62.5000991821289,1000.0015869140624,191.40655517578125
829.070068359375,814.2652587890625,-85.93763732910156,1023.4390869140624,187.5002899169922
832.3600463867188,815.9102783203125,-85.93763732910156,1023.4390869140624,187.5002899169922
834.0050048828125,829.070068359375,-46.87507247924805,992.1890258789062,199.21905517578125
838.9400024414062,848.8098754882812,-74.21886444091797,1007.8140869140624,187.5002899169922
838.9400024414062,848.8098754882812,-78.1251220703125,1007.8140869140624,183.5940399169922
829.070068359375,832.3600463867188,-58.59384155273438,1023.4390869140624,179.68777465820312
837.2949829101562,830.715087890625,-97.65640258789062,1007.8140869140624,195.31280517578125
837.2949829101562,834.0050048828125,-97.65640258789062,1007.8140869140624,195.31280517578125
834.0050048828125,837.2949829101562,-160.156494140625,960.9390258789062,175.78152465820312
834.0050048828125,832.3600463867188,-160.156494140625,960.9390258789062,175.78152465820312
840.5849609375,842.2299194335938,-128.90644836425778,980.4702758789062,203.1253204345703
843.8749389648438,843.8749389648438,-136.71896362304688,1015.6265869140624,171.87527465820312
834.0050048828125,835.6500244140625,-109.37516784667969,1027.3453369140623,175.78152465820312
834.0050048828125,835.6500244140625,-105.46891784667969,1011.7203369140624,156.250244140625
835.6500244140625,824.1351318359375,-105.46891784667969,1011.7203369140624,156.250244140625
830.715087890625,820.84521484375,-105.46891784667969,1011.7203369140624,156.250244140625
838.9400024414062,848.8098754882812,-109.37516784667969,1007.8140869140624,203.1253204345703
834.0050048828125,824.1351318359375,-117.18768310546876,1011.7203369140624,207.0315704345703
830.715087890625,817.5552368164062,-101.56266021728516,996.0953369140624,207.0315704345703
830.715087890625,817.5552368164062,-132.81271362304688,1003.9078369140624,183.5940399169922
847.1648559570312,863.6146850585938,-132.81271362304688,996.0953369140624,183.5940399169922
847.1648559570312,863.6146850585938,-109.37516784667969,996.0953369140624,195.31280517578125
840.5849609375,835.6500244140625,-89.84388732910156,1007.8140869140624,195.31280517578125
837.2949829101562,820.84521484375,-89.84388732910156,1007.8140869140624,195.31280517578125
832.3600463867188,810.9752807617188,-82.03137969970703,1019.5328369140624,187.5002899169922
842.2299194335938,838.9400024414062,-82.03137969970703,1019.5328369140624,187.5002899169922
838.9400024414062,850.454833984375,-85.93763732910156,968.7515258789062,195.31280517578125
838.9400024414062,850.454833984375,-93.7501449584961,984.3765258789062,191.40655517578125
838.9400024414062,827.4251098632812,-105.46891784667969,1011.7203369140624,187.5002899169922
835.6500244140625,802.7504272460938,-97.65640258789062,1031.2515869140623,199.21905517578125
838.9400024414062,824.1351318359375,-97.65640258789062,1015.6265869140624,203.1253204345703
835.6500244140625,830.715087890625,-97.65640258789062,1015.6265869140624,203.1253204345703
832.3600463867188,824.1351318359375,-78.1251220703125,996.0953369140624,203.1253204345703
838.9400024414062,840.5849609375,-39.06256103515625,1027.3453369140623,191.40655517578125
832.3600463867188,834.0050048828125,-74.21886444091797,988.2827758789062,210.93783569335938
832.3600463867188,834.0050048828125,-58.59384155273438,1003.9078369140624,210.93783569335938
838.9400024414062,840.5849609375,-58.59384155273438,1019.5328369140624,203.1253204345703
842.2299194335938,827.4251098632812,-58.59384155273438,1019.5328369140624,203.1253204345703
843.8749389648438,847.1648559570312,-58.59384155273438,1019.5328369140624,203.1253204345703
834.0050048828125,815.9102783203125,-50.78133010864258,1000.0015869140624,218.75033569335938
838.9400024414062,848.8098754882812,-50.78133010864258,1000.0015869140624,218.75033569335938
840.5849609375,832.3600463867188,-70.31260681152344,1031.2515869140623,226.56285095214844
837.2949829101562,843.8749389648438,-74.21886444091797,1019.5328369140624,230.4691162109375
840.5849609375,848.8098754882812,-74.21886444091797,1019.5328369140624,230.4691162109375
832.3600463867188,815.9102783203125,-62.5000991821289,1007.8140869140624,222.65660095214844
837.2949829101562,832.3600463867188,-117.18768310546876,980.4702758789062,183.5940399169922
837.2949829101562,832.3600463867188,-117.18768310546876,984.3765258789062,195.31280517578125
847.1648559570312,855.3897705078125,-117.18768310546876,984.3765258789062,195.31280517578125
842.2299194335938,837.2949829101562,-167.96900939941406,980.4702758789062,226.56285095214844
834.0050048828125,837.2949829101562,-148.43772888183594,941.40771484375,246.09413146972656
834.0050048828125,837.2949829101562,-70.31260681152344,1058.595458984375,265.6254272460937
837.2949829101562,848.8098754882812,-70.31260681152344,1058.595458984375,265.6254272460937
835.6500244140625,838.9400024414062,-70.31260681152344,1058.595458984375,265.6254272460937
835.6500244140625,838.9400024414062,-35.15630340576172,960.9390258789062,269.5316772460937
832.3600463867188,845.5198974609375,-35.15630340576172,960.9390258789062,269.5316772460937
830.715087890625,830.715087890625,-35.15630340576172,960.9390258789062,269.5316772460937
835.6500244140625,850.454833984375,-78.1251220703125,972.6577758789062,222.65660095214844
832.3600463867188,835.6500244140625,-109.37516784667969,996.0953369140624,203.1253204345703
838.9400024414062,860.32470703125,-113.28142547607422,1011.7203369140624,195.31280517578125
829.070068359375,815.9102783203125,-74.21886444091797,1039.0640869140623,167.96900939941406
832.3600463867188,837.2949829101562,-109.37516784667969,1019.5328369140624,156.250244140625
832.3600463867188,820.84521484375,-78.1251220703125,980.4702758789062,152.343994140625
842.2299194335938,850.454833984375,-74.21886444091797,992.1890258789062,160.156494140625
834.0050048828125,822.4901733398438,-74.21886444091797,992.1890258789062,160.156494140625
840.5849609375,838.9400024414062,-74.21886444091797,992.1890258789062,160.156494140625
842.2299194335938,835.6500244140625,-70.31260681152344,1027.3453369140623,164.06275939941406
837.2949829101562,827.4251098632812,-82.03137969970703,1015.6265869140624,167.96900939941406
842.2299194335938,838.9400024414062,-82.03137969970703,1015.6265869140624,167.96900939941406
834.0050048828125,829.070068359375,-54.687583923339844,996.0953369140624,183.5940399169922
829.070068359375,835.6500244140625,-54.687583923339844,996.0953369140624,183.5940399169922
832.3600463867188,858.6797485351562,-93.7501449584961,1019.5328369140624,179.68777465820312
829.070068359375,822.4901733398438,-93.7501449584961,1058.595458984375,164.06275939941406
829.070068359375,822.4901733398438,-58.59384155273438,1023.4390869140624,167.96900939941406
829.070068359375,822.4901733398438,-62.5000991821289,1011.7203369140624,171.87527465820312
834.0050048828125,829.070068359375,-62.5000991821289,1011.7203369140624,171.87527465820312
840.5849609375,858.6797485351562,-62.5000991821289,1011.7203369140624,171.87527465820312
834.0050048828125,822.4901733398438,-58.59384155273438,1023.4390869140624,160.156494140625
835.6500244140625,835.6500244140625,-58.59384155273438,1023.4390869140624,160.156494140625
835.6500244140625,835.6500244140625,-74.21886444091797,960.9390258789062,191.40655517578125
832.3600463867188,812.6203002929688,-74.21886444091797,960.9390258789062,191.40655517578125
832.3600463867188,812.6203002929688,-105.46891784667969,960.9390258789062,214.84408569335938
832.3600463867188,838.9400024414062,-105.46891784667969,960.9390258789062,214.84408569335938
838.9400024414062,853.7448120117188,-125.0001983642578,1000.0015869140624,222.65660095214844
832.3600463867188,845.5198974609375,-82.03137969970703,1019.5328369140624,218.75033569335938
825.7801513671875,845.5198974609375,-82.03137969970703,1019.5328369140624,218.75033569335938
827.4251098632812,822.4901733398438,-82.03137969970703,1019.5328369140624,218.75033569335938
829.070068359375,835.6500244140625,-89.84388732910156,980.4702758789062,203.1253204345703
830.715087890625,824.1351318359375,-62.5000991821289,1000.0015869140624,210.93783569335938
832.3600463867188,825.7801513671875,-66.40635681152344,1000.0015869140624,203.1253204345703
832.3600463867188,825.7801513671875,-82.03137969970703,1000.0015869140624,195.31280517578125
837.2949829101562,820.84521484375,-82.03137969970703,1000.0015869140624,195.31280517578125
843.8749389648438,837.2949829101562,-50.78133010864258,1023.4390869140624,207.0315704345703
827.4251098632812,801.1054077148438,-50.78133010864258,1031.2515869140623,207.0315704345703
835.6500244140625,830.715087890625,-50.78133010864258,1031.2515869140623,207.0315704345703
837.2949829101562,843.8749389648438,-58.59384155273438,1007.8140869140624,199.21905517578125
845.5198974609375,857.0347290039062,-58.59384155273438,1007.8140869140624,199.21905517578125
840.5849609375,843.8749389648438,-42.96881866455078,1000.0015869140624,199.21905517578125
835.6500244140625,840.5849609375,-42.96881866455078,1000.0015869140624,199.21905517578125
834.0050048828125,830.715087890625,-50.78133010864258,992.1890258789062,195.31280517578125
834.0050048828125,830.715087890625,-74.21886444091797,996.0953369140624,195.31280517578125
835.6500244140625,852.0997924804688,-74.21886444091797,996.0953369140624,195.31280517578125
825.7801513671875,815.9102783203125,-54.687583923339844,1023.4390869140624,207.0315704345703
838.9400024414062,847.1648559570312,-70.31260681152344,1031.2515869140623,187.5002899169922
830.715087890625,835.6500244140625,-93.7501449584961,1015.6265869140624,191.40655517578125
830.715087890625,842.2299194335938,-93.7501449584961,1011.7203369140624,195.31280517578125
845.5198974609375,855.3897705078125,-93.7501449584961,1011.7203369140624,195.31280517578125
837.2949829101562,832.3600463867188,-93.7501449584961,1011.7203369140624,195.31280517578125
830.715087890625,825.7801513671875,-70.31260681152344,1007.8140869140624,207.0315704345703
838.9400024414062,848.8098754882812,-82.03137969970703,1007.8140869140624,183.5940399169922
838.9400024414062,848.8098754882812,-89.84388732910156,972.6577758789062,187.5002899169922
838.9400024414062,848.8098754882812,-82.03137969970703,960.9390258789062,203.1253204345703
838.9400024414062,838.9400024414062,-82.03137969970703,960.9390258789062,203.1253204345703
834.0050048828125,842.2299194335938,-82.03137969970703,960.9390258789062,203.1253204345703
840.5849609375,842.2299194335938,-78.1251220703125,1023.4390869140624,218.75033569335938
840.5849609375,852.0997924804688,-78.1251220703125,1023.4390869140624,218.75033569335938
830.715087890625,825.7801513671875,-97.65640258789062,1035.1578369140623,156.250244140625
830.715087890625,825.7801513671875,-105.46891784667969,992.1890258789062,140.62521362304688
840.5849609375,852.0997924804688,-105.46891784667969,992.1890258789062,140.62521362304688
834.0050048828125,832.3600463867188,-105.46891784667969,992.1890258789062,140.62521362304688
834.0050048828125,832.3600463867188,-113.28142547607422,972.6577758789062,152.343994140625
827.4251098632812,814.2652587890625,-113.28142547607422,972.6577758789062,152.343994140625
835.6500244140625,852.0997924804688,-113.28142547607422,972.6577758789062,152.343994140625
837.2949829101562,848.8098754882812,-109.37516784667969,1000.0015869140624,175.78152465820312
840.5849609375,853.7448120117188,-109.37516784667969,1000.0015869140624,175.78152465820312
834.0050048828125,827.4251098632812,-93.7501449584961,988.2827758789062,203.1253204345703
837.2949829101562,853.7448120117188,-97.65640258789062,988.2827758789062,203.1253204345703
837.2949829101562,853.7448120117188,-85.93763732910156,1011.7203369140624,207.0315704345703
837.2949829101562,853.7448120117188,-93.7501449584961,1007.8140869140624,210.93783569335938
837.2949829101562,855.3897705078125,-93.7501449584961,1007.8140869140624,210.93783569335938
838.9400024414062,843.8749389648438,-117.18768310546876,1035.1578369140623,207.0315704345703
838.9400024414062,853.7448120117188,-105.46891784667969,1031.2515869140623,210.93783569335938
830.715087890625,820.84521484375,-121.09394073486328,1007.8140869140624,175.78152465820312
842.2299194335938,842.2299194335938,-128.90644836425778,1000.0015869140624,164.06275939941406
845.5198974609375,853.7448120117188,-105.46891784667969,980.4702758789062,136.71896362304688
834.0050048828125,820.84521484375,-105.46891784667969,980.4702758789062,136.71896362304688
835.6500244140625,834.0050048828125,-97.65640258789062,980.4702758789062,144.53147888183594
837.2949829101562,847.1648559570312,-97.65640258789062,1000.0015869140624,152.343994140625
837.2949829101562,815.9102783203125,-97.65640258789062,1000.0015869140624,152.343994140625
843.8749389648438,850.454833984375,-66.40635681152344,1046.8765869140623,175.78152465820312
835.6500244140625,840.5849609375,-66.40635681152344,1046.8765869140623,175.78152465820312
843.8749389648438,845.5198974609375,-113.28142547607422,1011.7203369140624,179.68777465820312
843.8749389648438,845.5198974609375,-74.21886444091797,1027.3453369140623,199.21905517578125
838.9400024414062,860.32470703125,-74.21886444091797,1027.3453369140623,199.21905517578125
834.0050048828125,840.5849609375,-85.93763732910156,984.3765258789062,175.78152465820312
838.9400024414062,845.5198974609375,-85.93763732910156,984.3765258789062,175.78152465820312
829.070068359375,825.7801513671875,-85.93763732910156,984.3765258789062,175.78152465820312
838.9400024414062,843.8749389648438,-74.21886444091797,1003.9078369140624,164.06275939941406
838.9400024414062,848.8098754882812,-74.21886444091797,1003.9078369140624,164.06275939941406
830.715087890625,834.0050048828125,-74.21886444091797,1003.9078369140624,164.06275939941406
824.1351318359375,822.4901733398438,-54.687583923339844,1000.0015869140624,160.156494140625
830.715087890625,848.8098754882812,-97.65640258789062,1000.0015869140624,144.53147888183594
832.3600463867188,853.7448120117188,-97.65640258789062,1000.0015869140624,144.53147888183594
834.0050048828125,843.8749389648438,-74.21886444091797,1031.2515869140623,156.250244140625
830.715087890625,820.84521484375,-74.21886444091797,1031.2515869140623,156.250244140625
829.070068359375,832.3600463867188,-74.21886444091797,1031.2515869140623,156.250244140625
829.070068359375,832.3600463867188,-74.21886444091797,992.1890258789062,152.343994140625
825.7801513671875,820.84521484375,-74.21886444091797,992.1890258789062,152.343994140625
834.0050048828125,848.8098754882812,-70.31260681152344,1015.6265869140624,164.06275939941406
830.715087890625,840.5849609375,-74.21886444091797,1015.6265869140624,164.06275939941406
832.3600463867188,829.070068359375,-82.03137969970703,1019.5328369140624,164.06275939941406
842.2299194335938,847.1648559570312,-89.84388732910156,1011.7203369140624,156.250244140625
837.2949829101562,834.0050048828125,-89.84388732910156,1011.7203369140624,156.250244140625
