EEG1,EEG2,Acc_X,Acc_Y,Acc_Z
866.9046630859375,842.2299194335938,-531.2508544921875,859.3763427734375,238.2816162109375
845.5198974609375,822.4901733398438,-519.5320434570311,855.4700927734375,246.09413146972656
860.32470703125,835.6500244140625,-519.5320434570311,855.4700927734375,246.09413146972656
860.32470703125,835.6500244140625,-542.9696044921875,851.5638427734375,238.2816162109375
835.6500244140625,837.2949829101562,-535.1571044921875,859.3763427734375,238.2816162109375
852.0997924804688,838.9400024414062,-507.81329345703125,855.4700927734375,242.18788146972656
852.0997924804688,838.9400024414062,-519.5320434570311,859.3763427734375,242.18788146972656
853.7448120117188,842.2299194335938,-519.5320434570311,859.3763427734375,242.18788146972656
825.7801513671875,840.5849609375,-519.5320434570311,859.3763427734375,242.18788146972656
825.7801513671875,840.5849609375,-542.9696044921875,863.2825927734375,234.3753662109375
850.454833984375,842.2299194335938,-546.8758544921875,859.3763427734375,226.56285095214844
814.2652587890625,848.8098754882812,-523.4382934570311,863.2825927734375,238.2816162109375
848.8098754882812,843.8749389648438,-527.3446044921875,847.6575927734375,242.18788146972656
834.0050048828125,843.8749389648438,-523.4382934570311,859.3763427734375,242.18788146972656
822.4901733398438,845.5198974609375,-523.4382934570311,863.2825927734375,242.18788146972656
850.454833984375,845.5198974609375,-523.4382934570311,863.2825927734375,242.18788146972656
852.0997924804688,847.1648559570312,-523.4382934570311,863.2825927734375,246.09413146972656
834.0050048828125,848.8098754882812,-523.4382934570311,851.5638427734375,250.0003967285156
834.0050048828125,848.8098754882812,-519.5320434570311,851.5638427734375,253.9066467285156
860.32470703125,847.1648559570312,-523.4382934570311,851.5638427734375,253.9066467285156
857.0347290039062,848.8098754882812,-527.3446044921875,855.4700927734375,253.9066467285156
857.0347290039062,848.8098754882812,-527.3446044921875,863.2825927734375,253.9066467285156
830.715087890625,840.5849609375,-527.3446044921875,859.3763427734375,253.9066467285156
850.454833984375,845.5198974609375,-527.3446044921875,855.4700927734375,257.81289672851557
853.7448120117188,845.5198974609375,-527.3446044921875,855.4700927734375,257.81289672851557
827.4251098632812,842.2299194335938,-515.6257934570311,847.6575927734375,261.71914672851557
845.5198974609375,847.1648559570312,-519.5320434570311,843.7513427734375,261.71914672851557
843.8749389648438,843.8749389648438,-527.3446044921875,847.6575927734375,269.5316772460937
855.3897705078125,842.2299194335938,-527.3446044921875,847.6575927734375,269.5316772460937
863.6146850585938,838.9400024414062,-519.5320434570311,851.5638427734375,273.4379272460937
847.1648559570312,840.5849609375,-500.00079345703125,847.6575927734375,289.0629577636719
838.9400024414062,835.6500244140625,-539.0633544921875,867.1888427734375,265.6254272460937
853.7448120117188,837.2949829101562,-511.71954345703125,820.3137817382812,292.9692077636719
845.5198974609375,842.2299194335938,-515.6257934570311,835.9387817382812,296.8754577636719
837.2949829101562,837.2949829101562,-515.6257934570311,835.9387817382812,296.8754577636719
840.5849609375,838.9400024414062,-496.0945129394531,847.6575927734375,328.1255187988281
829.070068359375,829.070068359375,-503.90704345703125,859.3763427734375,320.31298828125
827.4251098632812,855.3897705078125,-503.90704345703125,859.3763427734375,320.31298828125
809.330322265625,870.194580078125,-503.90704345703125,859.3763427734375,320.31298828125
792.8805541992188,878.4194946289062,-523.4382934570311,835.9387817382812,316.40673828125
812.6203002929688,868.5496215820312,-535.1571044921875,859.3763427734375,312.50048828125
825.7801513671875,837.2949829101562,-550.7821044921875,835.9387817382812,304.68798828125
847.1648559570312,847.1648559570312,-570.3134155273438,816.4075317382812,292.9692077636719
847.1648559570312,847.1648559570312,-554.6883544921875,820.3137817382812,292.9692077636719
832.3600463867188,845.5198974609375,-531.2508544921875,839.8450927734375,304.68798828125
847.1648559570312,845.5198974609375,-531.2508544921875,839.8450927734375,304.68798828125
870.194580078125,848.8098754882812,-511.71954345703125,851.5638427734375,316.40673828125
819.2001953125,858.6797485351562,-507.81329345703125,843.7513427734375,320.31298828125
817.5552368164062,845.5198974609375,-503.90704345703125,835.9387817382812,328.1255187988281
825.7801513671875,837.2949829101562,-519.5320434570311,843.7513427734375,296.8754577636719
931.0588989257812,858.6797485351562,-500.00079345703125,855.4700927734375,308.59423828125
878.4194946289062,845.5198974609375,-515.6257934570311,847.6575927734375,308.59423828125
773.1407470703125,830.715087890625,-511.71954345703125,847.6575927734375,312.50048828125
773.1407470703125,837.2949829101562,-503.90704345703125,843.7513427734375,300.7817077636719
773.1407470703125,837.2949829101562,-519.5320434570311,843.7513427734375,304.68798828125
825.7801513671875,843.8749389648438,-519.5320434570311,843.7513427734375,312.50048828125
773.1407470703125,830.715087890625,-515.6257934570311,851.5638427734375,308.59423828125
931.0588989257812,863.6146850585938,-515.6257934570311,851.5638427734375,308.59423828125
845.5198974609375,834.0050048828125,-527.3446044921875,839.8450927734375,292.9692077636719
740.2411499023438,829.070068359375,-531.2508544921875,824.2200317382812,238.2816162109375
792.8805541992188,835.6500244140625,-531.2508544921875,824.2200317382812,238.2816162109375
845.5198974609375,852.0997924804688,-523.4382934570311,839.8450927734375,250.0003967285156
792.8805541992188,838.9400024414062,-550.7821044921875,835.9387817382812,257.81289672851557
792.8805541992188,842.2299194335938,-550.7821044921875,835.9387817382812,257.81289672851557
845.5198974609375,845.5198974609375,-539.0633544921875,847.6575927734375,269.5316772460937
824.1351318359375,850.454833984375,-519.5320434570311,875.0013427734375,285.1567077636719
840.5849609375,848.8098754882812,-531.2508544921875,843.7513427734375,285.1567077636719
853.7448120117188,847.1648559570312,-539.0633544921875,835.9387817382812,281.2504272460937
845.5198974609375,843.8749389648438,-519.5320434570311,851.5638427734375,277.3441772460937
838.9400024414062,848.8098754882812,-511.71954345703125,847.6575927734375,285.1567077636719
838.9400024414062,848.8098754882812,-507.81329345703125,843.7513427734375,292.9692077636719
850.454833984375,843.8749389648438,-519.5320434570311,847.6575927734375,296.8754577636719
840.5849609375,843.8749389648438,-519.5320434570311,847.6575927734375,296.8754577636719
840.5849609375,845.5198974609375,-546.8758544921875,832.0325317382812,300.7817077636719
838.9400024414062,845.5198974609375,-546.8758544921875,832.0325317382812,300.7817077636719
848.8098754882812,847.1648559570312,-531.2508544921875,843.7513427734375,292.9692077636719
850.454833984375,845.5198974609375,-511.71954345703125,847.6575927734375,300.7817077636719
843.8749389648438,848.8098754882812,-519.5320434570311,851.5638427734375,300.7817077636719
843.8749389648438,852.0997924804688,-527.3446044921875,847.6575927734375,300.7817077636719
845.5198974609375,842.2299194335938,-527.3446044921875,847.6575927734375,300.7817077636719
845.5198974609375,842.2299194335938,-527.3446044921875,832.0325317382812,296.8754577636719
850.454833984375,840.5849609375,-527.3446044921875,832.0325317382812,296.8754577636719
837.2949829101562,840.5849609375,-527.3446044921875,832.0325317382812,296.8754577636719
840.5849609375,845.5198974609375,-503.90704345703125,859.3763427734375,285.1567077636719
837.2949829101562,843.8749389648438,-503.90704345703125,859.3763427734375,285.1567077636719
829.070068359375,842.2299194335938,-523.4382934570311,843.7513427734375,292.9692077636719
829.070068359375,842.2299194335938,-531.2508544921875,839.8450927734375,289.0629577636719
840.5849609375,842.2299194335938,-531.2508544921875,839.8450927734375,289.0629577636719
843.8749389648438,848.8098754882812,-515.6257934570311,843.7513427734375,296.8754577636719
845.5198974609375,842.2299194335938,-519.5320434570311,843.7513427734375,292.9692077636719
850.454833984375,830.715087890625,-515.6257934570311,855.4700927734375,289.0629577636719
850.454833984375,830.715087890625,-523.4382934570311,847.6575927734375,292.9692077636719
840.5849609375,842.2299194335938,-523.4382934570311,847.6575927734375,292.9692077636719
842.2299194335938,843.8749389648438,-523.4382934570311,847.6575927734375,292.9692077636719
842.2299194335938,838.9400024414062,-519.5320434570311,863.2825927734375,285.1567077636719
838.9400024414062,843.8749389648438,-519.5320434570311,863.2825927734375,285.1567077636719
838.9400024414062,843.8749389648438,-515.6257934570311,855.4700927734375,289.0629577636719
843.8749389648438,843.8749389648438,-515.6257934570311,855.4700927734375,289.0629577636719
838.9400024414062,842.2299194335938,-523.4382934570311,843.7513427734375,289.0629577636719
838.9400024414062,842.2299194335938,-531.2508544921875,843.7513427734375,285.1567077636719
848.8098754882812,840.5849609375,-531.2508544921875,843.7513427734375,285.1567077636719
840.5849609375,842.2299194335938,-515.6257934570311,847.6575927734375,292.9692077636719
847.1648559570312,843.8749389648438,-527.3446044921875,835.9387817382812,289.0629577636719
840.5849609375,842.2299194335938,-527.3446044921875,835.9387817382812,289.0629577636719
842.2299194335938,843.8749389648438,-527.3446044921875,847.6575927734375,292.9692077636719
842.2299194335938,843.8749389648438,-527.3446044921875,839.8450927734375,296.8754577636719
838.9400024414062,843.8749389648438,-527.3446044921875,839.8450927734375,296.8754577636719
837.2949829101562,842.2299194335938,-527.3446044921875,839.8450927734375,296.8754577636719
840.5849609375,847.1648559570312,-511.71954345703125,851.5638427734375,292.9692077636719
845.5198974609375,845.5198974609375,-511.71954345703125,851.5638427734375,292.9692077636719
835.6500244140625,842.2299194335938,-523.4382934570311,847.6575927734375,296.8754577636719
848.8098754882812,853.7448120117188,-515.6257934570311,843.7513427734375,292.9692077636719
837.2949829101562,852.0997924804688,-515.6257934570311,843.7513427734375,292.9692077636719
837.2949829101562,852.0997924804688,-523.4382934570311,847.6575927734375,292.9692077636719
840.5849609375,850.454833984375,-523.4382934570311,847.6575927734375,292.9692077636719
835.6500244140625,843.8749389648438,-515.6257934570311,851.5638427734375,292.9692077636719
843.8749389648438,842.2299194335938,-519.5320434570311,843.7513427734375,292.9692077636719
835.6500244140625,845.5198974609375,-519.5320434570311,843.7513427734375,292.9692077636719
842.2299194335938,842.2299194335938,-523.4382934570311,847.6575927734375,304.68798828125
842.2299194335938,842.2299194335938,-523.4382934570311,851.5638427734375,300.7817077636719
838.9400024414062,847.1648559570312,-523.4382934570311,847.6575927734375,289.0629577636719
838.9400024414062,847.1648559570312,-519.5320434570311,843.7513427734375,292.9692077636719
843.8749389648438,845.5198974609375,-515.6257934570311,839.8450927734375,296.8754577636719
829.070068359375,843.8749389648438,-515.6257934570311,839.8450927734375,296.8754577636719
830.715087890625,845.5198974609375,-539.0633544921875,843.7513427734375,289.0629577636719
830.715087890625,845.5198974609375,-535.1571044921875,839.8450927734375,289.0629577636719
842.2299194335938,843.8749389648438,-527.3446044921875,839.8450927734375,292.9692077636719
840.5849609375,842.2299194335938,-527.3446044921875,839.8450927734375,292.9692077636719
837.2949829101562,842.2299194335938,-535.1571044921875,843.7513427734375,292.9692077636719
827.4251098632812,848.8098754882812,-531.2508544921875,839.8450927734375,292.9692077636719
827.4251098632812,848.8098754882812,-523.4382934570311,835.9387817382812,292.9692077636719
840.5849609375,843.8749389648438,-523.4382934570311,835.9387817382812,292.9692077636719
850.454833984375,845.5198974609375,-523.4382934570311,835.9387817382812,292.9692077636719
850.454833984375,848.8098754882812,-531.2508544921875,843.7513427734375,292.9692077636719
848.8098754882812,845.5198974609375,-531.2508544921875,843.7513427734375,289.0629577636719
863.6146850585938,829.070068359375,-531.2508544921875,839.8450927734375,289.0629577636719
863.6146850585938,829.070068359375,-535.1571044921875,839.8450927734375,296.8754577636719
848.8098754882812,832.3600463867188,-535.1571044921875,839.8450927734375,296.8754577636719
880.064453125,814.2652587890625,-535.1571044921875,839.8450927734375,296.8754577636719
901.44921875,797.8154907226562,-535.1571044921875,843.7513427734375,289.0629577636719
894.8693237304688,796.1704711914062,-535.1571044921875,843.7513427734375,289.0629577636719
871.839599609375,819.2001953125,-523.4382934570311,839.8450927734375,285.1567077636719
871.839599609375,819.2001953125,-535.1571044921875,832.0325317382812,277.3441772460937
865.2596435546875,834.0050048828125,-535.1571044921875,832.0325317382812,277.3441772460937
857.0347290039062,832.3600463867188,-535.1571044921875,839.8450927734375,265.6254272460937
845.5198974609375,840.5849609375,-535.1571044921875,835.9387817382812,269.5316772460937
843.8749389648438,842.2299194335938,-527.3446044921875,847.6575927734375,269.5316772460937
835.6500244140625,848.8098754882812,-527.3446044921875,847.6575927734375,269.5316772460937
835.6500244140625,848.8098754882812,-539.0633544921875,847.6575927734375,269.5316772460937
840.5849609375,845.5198974609375,-539.0633544921875,847.6575927734375,269.5316772460937
843.8749389648438,847.1648559570312,-531.2508544921875,855.4700927734375,265.6254272460937
842.2299194335938,847.1648559570312,-531.2508544921875,855.4700927734375,265.6254272460937
832.3600463867188,848.8098754882812,-527.3446044921875,835.9387817382812,269.5316772460937
832.3600463867188,848.8098754882812,-542.9696044921875,847.6575927734375,269.5316772460937
827.4251098632812,853.7448120117188,-531.2508544921875,847.6575927734375,269.5316772460937
827.4251098632812,853.7448120117188,-535.1571044921875,843.7513427734375,261.71914672851557
827.4251098632812,852.0997924804688,-535.1571044921875,843.7513427734375,261.71914672851557
838.9400024414062,857.0347290039062,-535.1571044921875,843.7513427734375,261.71914672851557
840.5849609375,850.454833984375,-535.1571044921875,851.5638427734375,265.6254272460937
837.2949829101562,848.8098754882812,-542.9696044921875,847.6575927734375,261.71914672851557
838.9400024414062,845.5198974609375,-531.2508544921875,855.4700927734375,265.6254272460937
838.9400024414062,845.5198974609375,-535.1571044921875,847.6575927734375,269.5316772460937
837.2949829101562,847.1648559570312,-535.1571044921875,843.7513427734375,269.5316772460937
837.2949829101562,847.1648559570312,-539.0633544921875,839.8450927734375,277.3441772460937
837.2949829101562,847.1648559570312,-535.1571044921875,847.6575927734375,269.5316772460937
834.0050048828125,845.5198974609375,-535.1571044921875,847.6575927734375,269.5316772460937
840.5849609375,843.8749389648438,-535.1571044921875,847.6575927734375,269.5316772460937
843.8749389648438,848.8098754882812,-535.1571044921875,843.7513427734375,269.5316772460937
845.5198974609375,845.5198974609375,-535.1571044921875,843.7513427734375,269.5316772460937
848.8098754882812,845.5198974609375,-539.0633544921875,835.9387817382812,273.4379272460937
850.454833984375,847.1648559570312,-531.2508544921875,843.7513427734375,269.5316772460937
852.0997924804688,848.8098754882812,-523.4382934570311,847.6575927734375,269.5316772460937
843.8749389648438,847.1648559570312,-542.9696044921875,847.6575927734375,269.5316772460937
845.5198974609375,848.8098754882812,-542.9696044921875,847.6575927734375,269.5316772460937
840.5849609375,847.1648559570312,-531.2508544921875,843.7513427734375,273.4379272460937
840.5849609375,847.1648559570312,-527.3446044921875,843.7513427734375,269.5316772460937
850.454833984375,852.0997924804688,-527.3446044921875,843.7513427734375,269.5316772460937
848.8098754882812,848.8098754882812,-535.1571044921875,843.7513427734375,273.4379272460937
832.3600463867188,847.1648559570312,-535.1571044921875,843.7513427734375,273.4379272460937
840.5849609375,848.8098754882812,-535.1571044921875,835.9387817382812,277.3441772460937
840.5849609375,848.8098754882812,-539.0633544921875,835.9387817382812,273.4379272460937
843.8749389648438,848.8098754882812,-539.0633544921875,835.9387817382812,273.4379272460937
829.070068359375,848.8098754882812,-539.0633544921875,843.7513427734375,277.3441772460937
848.8098754882812,840.5849609375,-542.9696044921875,839.8450927734375,269.5316772460937
852.0997924804688,830.715087890625,-542.9696044921875,839.8450927734375,269.5316772460937
845.5198974609375,830.715087890625,-535.1571044921875,843.7513427734375,269.5316772460937
845.5198974609375,830.715087890625,-535.1571044921875,843.7513427734375,273.4379272460937
842.2299194335938,842.2299194335938,-539.0633544921875,847.6575927734375,273.4379272460937
842.2299194335938,842.2299194335938,-542.9696044921875,843.7513427734375,269.5316772460937
842.2299194335938,842.2299194335938,-539.0633544921875,839.8450927734375,273.4379272460937
847.1648559570312,840.5849609375,-539.0633544921875,839.8450927734375,273.4379272460937
850.454833984375,843.8749389648438,-539.0633544921875,835.9387817382812,273.4379272460937
850.454833984375,843.8749389648438,-523.4382934570311,843.7513427734375,269.5316772460937
820.84521484375,870.194580078125,-523.4382934570311,843.7513427734375,269.5316772460937
801.1054077148438,889.9343872070312,-539.0633544921875,835.9387817382812,269.5316772460937
797.8154907226562,899.8042602539062,-539.0633544921875,835.9387817382812,269.5316772460937
825.7801513671875,863.6146850585938,-531.2508544921875,847.6575927734375,277.3441772460937
825.7801513671875,863.6146850585938,-535.1571044921875,843.7513427734375,277.3441772460937
825.7801513671875,863.6146850585938,-535.1571044921875,832.0325317382812,281.2504272460937
837.2949829101562,861.9697265625,-535.1571044921875,832.0325317382812,281.2504272460937
825.7801513671875,855.3897705078125,-535.1571044921875,832.0325317382812,281.2504272460937
837.2949829101562,848.8098754882812,-546.8758544921875,835.9387817382812,281.2504272460937
838.9400024414062,843.8749389648438,-546.8758544921875,835.9387817382812,281.2504272460937
838.9400024414062,843.8749389648438,-531.2508544921875,839.8450927734375,281.2504272460937
840.5849609375,845.5198974609375,-527.3446044921875,843.7513427734375,281.2504272460937
848.8098754882812,843.8749389648438,-531.2508544921875,847.6575927734375,304.68798828125
845.5198974609375,843.8749389648438,-531.2508544921875,847.6575927734375,304.68798828125
852.0997924804688,852.0997924804688,-542.9696044921875,835.9387817382812,296.8754577636719
837.2949829101562,845.5198974609375,-542.9696044921875,835.9387817382812,296.8754577636719
829.070068359375,847.1648559570312,-535.1571044921875,843.7513427734375,300.7817077636719
843.8749389648438,845.5198974609375,-542.9696044921875,835.9387817382812,300.7817077636719
861.9697265625,853.7448120117188,-539.0633544921875,835.9387817382812,285.1567077636719
861.9697265625,853.7448120117188,-515.6257934570311,828.1262817382812,300.7817077636719
843.8749389648438,852.0997924804688,-519.5320434570311,843.7513427734375,304.68798828125
847.1648559570312,850.454833984375,-519.5320434570311,843.7513427734375,304.68798828125
829.070068359375,852.0997924804688,-546.8758544921875,835.9387817382812,277.3441772460937
852.0997924804688,845.5198974609375,-546.8758544921875,835.9387817382812,277.3441772460937
837.2949829101562,845.5198974609375,-523.4382934570311,843.7513427734375,277.3441772460937
855.3897705078125,845.5198974609375,-523.4382934570311,835.9387817382812,281.2504272460937
855.3897705078125,845.5198974609375,-523.4382934570311,832.0325317382812,285.1567077636719
835.6500244140625,840.5849609375,-523.4382934570311,828.1262817382812,312.50048828125
835.6500244140625,840.5849609375,-535.1571044921875,835.9387817382812,312.50048828125
842.2299194335938,843.8749389648438,-535.1571044921875,835.9387817382812,312.50048828125
891.579345703125,857.0347290039062,-550.7821044921875,820.3137817382812,312.50048828125
786.3005981445312,835.6500244140625,-558.5946044921875,835.9387817382812,296.8754577636719
786.3005981445312,827.4251098632812,-558.5946044921875,835.9387817382812,296.8754577636719
891.579345703125,857.0347290039062,-542.9696044921875,847.6575927734375,285.1567077636719
944.2186889648438,866.9046630859375,-542.9696044921875,847.6575927734375,285.1567077636719
733.6612548828125,827.4251098632812,-535.1571044921875,839.8450927734375,277.3441772460937
733.6612548828125,827.4251098632812,-542.9696044921875,828.1262817382812,281.2504272460937
838.9400024414062,838.9400024414062,-542.9696044921875,828.1262817382812,281.2504272460937
802.7504272460938,837.2949829101562,-527.3446044921875,847.6575927734375,300.7817077636719
802.7504272460938,824.1351318359375,-527.3446044921875,832.0325317382812,292.9692077636719
855.3897705078125,843.8749389648438,-527.3446044921875,832.0325317382812,292.9692077636719
750.1110229492188,838.9400024414062,-546.8758544921875,843.7513427734375,292.9692077636719
750.1110229492188,829.070068359375,-539.0633544921875,851.5638427734375,285.1567077636719
908.0291748046876,853.7448120117188,-527.3446044921875,832.0325317382812,292.9692077636719
908.0291748046876,853.7448120117188,-527.3446044921875,835.9387817382812,296.8754577636719
750.1110229492188,829.070068359375,-527.3446044921875,835.9387817382812,296.8754577636719
855.3897705078125,860.32470703125,-527.3446044921875,835.9387817382812,296.8754577636719
855.3897705078125,852.0997924804688,-546.8758544921875,835.9387817382812,292.9692077636719
908.0291748046876,863.6146850585938,-535.1571044921875,832.0325317382812,296.8754577636719
855.3897705078125,827.4251098632812,-535.1571044921875,832.0325317382812,296.8754577636719
750.1110229492188,825.7801513671875,-527.3446044921875,863.2825927734375,292.9692077636719
802.7504272460938,838.9400024414062,-531.2508544921875,843.7513427734375,289.0629577636719
802.7504272460938,838.9400024414062,-535.1571044921875,832.0325317382812,296.8754577636719
802.7504272460938,825.7801513671875,-539.0633544921875,839.8450927734375,289.0629577636719
888.2893676757812,847.1648559570312,-539.0633544921875,824.2200317382812,292.9692077636719
835.6500244140625,822.4901733398438,-539.0633544921875,824.2200317382812,292.9692077636719
888.2893676757812,852.0997924804688,-539.0633544921875,832.0325317382812,300.7817077636719
783.0106201171875,822.4901733398438,-539.0633544921875,832.0325317382812,300.7817077636719
835.6500244140625,819.2001953125,-527.3446044921875,832.0325317382812,296.8754577636719
940.9287719726562,855.3897705078125,-527.3446044921875,832.0325317382812,296.8754577636719
835.6500244140625,914.6090698242188,-546.8758544921875,804.6887817382812,355.46929931640625
824.1351318359375,916.2540283203124,-566.4071655273438,835.9387817382812,273.4379272460937
824.1351318359375,917.8990478515624,-550.7821044921875,808.5950317382812,273.4379272460937
838.9400024414062,912.964111328125,-535.1571044921875,843.7513427734375,253.9066467285156
834.0050048828125,919.5440063476562,-535.1571044921875,843.7513427734375,253.9066467285156
819.2001953125,908.0291748046876,-535.1571044921875,843.7513427734375,253.9066467285156
830.715087890625,912.964111328125,-562.5008544921875,835.9387817382812,238.2816162109375
832.3600463867188,916.2540283203124,-562.5008544921875,835.9387817382812,238.2816162109375
837.2949829101562,912.964111328125,-554.6883544921875,851.5638427734375,234.3753662109375
835.6500244140625,912.964111328125,-554.6883544921875,851.5638427734375,234.3753662109375
827.4251098632812,908.0291748046876,-554.6883544921875,851.5638427734375,234.3753662109375
842.2299194335938,911.319091796875,-550.7821044921875,832.0325317382812,250.0003967285156
840.5849609375,914.6090698242188,-550.7821044921875,832.0325317382812,250.0003967285156
848.8098754882812,901.44921875,-550.7821044921875,843.7513427734375,246.09413146972656
848.8098754882812,901.44921875,-558.5946044921875,847.6575927734375,242.18788146972656
843.8749389648438,898.1592407226562,-558.5946044921875,847.6575927734375,242.18788146972656
845.5198974609375,894.8693237304688,-546.8758544921875,839.8450927734375,253.9066467285156
842.2299194335938,894.8693237304688,-542.9696044921875,832.0325317382812,257.81289672851557
855.3897705078125,899.8042602539062,-550.7821044921875,847.6575927734375,246.09413146972656
855.3897705078125,903.09423828125,-542.9696044921875,839.8450927734375,253.9066467285156
855.3897705078125,903.09423828125,-574.2196655273438,851.5638427734375,242.18788146972656
848.8098754882812,899.8042602539062,-570.3134155273438,863.2825927734375,238.2816162109375
835.6500244140625,894.8693237304688,-546.8758544921875,835.9387817382812,242.18788146972656
837.2949829101562,904.7391967773438,-546.8758544921875,835.9387817382812,242.18788146972656
845.5198974609375,901.44921875,-535.1571044921875,847.6575927734375,234.3753662109375
830.715087890625,888.2893676757812,-535.1571044921875,847.6575927734375,234.3753662109375
830.715087890625,888.2893676757812,-550.7821044921875,843.7513427734375,246.09413146972656
812.6203002929688,880.064453125,-566.4071655273438,839.8450927734375,238.2816162109375
799.46044921875,876.7745361328125,-566.4071655273438,835.9387817382812,234.3753662109375
799.46044921875,876.7745361328125,-546.8758544921875,843.7513427734375,238.2816162109375
801.1054077148438,883.3544311523438,-546.8758544921875,843.7513427734375,238.2816162109375
817.5552368164062,878.4194946289062,-550.7821044921875,839.8450927734375,226.56285095214844
817.5552368164062,878.4194946289062,-546.8758544921875,843.7513427734375,230.4691162109375
825.7801513671875,878.4194946289062,-546.8758544921875,843.7513427734375,230.4691162109375
829.070068359375,881.70947265625,-542.9696044921875,847.6575927734375,242.18788146972656
847.1648559570312,871.839599609375,-550.7821044921875,832.0325317382812,246.09413146972656
817.5552368164062,871.839599609375,-558.5946044921875,855.4700927734375,242.18788146972656
817.5552368164062,871.839599609375,-558.5946044921875,847.6575927734375,238.2816162109375
822.4901733398438,871.839599609375,-558.5946044921875,847.6575927734375,238.2816162109375
840.5849609375,884.9994506835938,-558.5946044921875,835.9387817382812,242.18788146972656
840.5849609375,884.9994506835938,-550.7821044921875,839.8450927734375,242.18788146972656
825.7801513671875,880.064453125,-550.7821044921875,839.8450927734375,242.18788146972656
827.4251098632812,891.579345703125,-554.6883544921875,835.9387817382812,242.18788146972656
827.4251098632812,891.579345703125,-554.6883544921875,843.7513427734375,234.3753662109375
830.715087890625,894.8693237304688,-554.6883544921875,843.7513427734375,234.3753662109375
825.7801513671875,896.5142822265625,-566.4071655273438,843.7513427734375,242.18788146972656
815.9102783203125,883.3544311523438,-550.7821044921875,847.6575927734375,234.3753662109375
820.84521484375,883.3544311523438,-546.8758544921875,839.8450927734375,242.18788146972656
804.3953857421875,894.8693237304688,-546.8758544921875,839.8450927734375,242.18788146972656
807.6853637695312,893.2243041992188,-558.5946044921875,839.8450927734375,238.2816162109375
807.6853637695312,893.2243041992188,-542.9696044921875,863.2825927734375,238.2816162109375
804.3953857421875,891.579345703125,-542.9696044921875,863.2825927734375,238.2816162109375
802.7504272460938,894.8693237304688,-554.6883544921875,828.1262817382812,234.3753662109375
802.7504272460938,894.8693237304688,-566.4071655273438,835.9387817382812,238.2816162109375
794.5255126953125,896.5142822265625,-562.5008544921875,843.7513427734375,234.3753662109375
817.5552368164062,893.2243041992188,-542.9696044921875,847.6575927734375,242.18788146972656
829.070068359375,883.3544311523438,-542.9696044921875,847.6575927734375,242.18788146972656
812.6203002929688,884.9994506835938,-542.9696044921875,847.6575927734375,242.18788146972656
812.6203002929688,884.9994506835938,-562.5008544921875,847.6575927734375,234.3753662109375
827.4251098632812,896.5142822265625,-550.7821044921875,832.0325317382812,250.0003967285156
827.4251098632812,896.5142822265625,-546.8758544921875,839.8450927734375,253.9066467285156
825.7801513671875,881.70947265625,-554.6883544921875,847.6575927734375,250.0003967285156
787.945556640625,863.6146850585938,-554.6883544921875,847.6575927734375,250.0003967285156
797.8154907226562,863.6146850585938,-542.9696044921875,839.8450927734375,253.9066467285156
797.8154907226562,863.6146850585938,-542.9696044921875,835.9387817382812,261.71914672851557
807.6853637695312,870.194580078125,-566.4071655273438,835.9387817382812,246.09413146972656
802.7504272460938,870.194580078125,-566.4071655273438,835.9387817382812,246.09413146972656
799.46044921875,878.4194946289062,-566.4071655273438,835.9387817382812,246.09413146972656
842.2299194335938,876.7745361328125,-535.1571044921875,835.9387817382812,253.9066467285156
817.5552368164062,866.9046630859375,-535.1571044921875,835.9387817382812,253.9066467285156
819.2001953125,878.4194946289062,-554.6883544921875,847.6575927734375,253.9066467285156
814.2652587890625,878.4194946289062,-554.6883544921875,847.6575927734375,253.9066467285156
825.7801513671875,880.064453125,-550.7821044921875,847.6575927734375,242.18788146972656
825.7801513671875,880.064453125,-550.7821044921875,832.0325317382812,234.3753662109375
817.5552368164062,878.4194946289062,-550.7821044921875,835.9387817382812,238.2816162109375
817.5552368164062,878.4194946289062,-542.9696044921875,851.5638427734375,238.2816162109375
801.1054077148438,876.7745361328125,-542.9696044921875,851.5638427734375,238.2816162109375
812.6203002929688,868.5496215820312,-542.9696044921875,851.5638427734375,230.4691162109375
812.6203002929688,868.5496215820312,-542.9696044921875,839.8450927734375,234.3753662109375
796.1704711914062,871.839599609375,-546.8758544921875,835.9387817382812,242.18788146972656
809.330322265625,884.9994506835938,-550.7821044921875,835.9387817382812,246.09413146972656
787.945556640625,881.70947265625,-550.7821044921875,847.6575927734375,250.0003967285156
786.3005981445312,860.32470703125,-550.7821044921875,847.6575927734375,250.0003967285156
794.5255126953125,863.6146850585938,-558.5946044921875,843.7513427734375,250.0003967285156
794.5255126953125,873.4845581054688,-558.5946044921875,843.7513427734375,250.0003967285156
794.5255126953125,873.4845581054688,-554.6883544921875,843.7513427734375,246.09413146972656
794.5255126953125,873.4845581054688,-554.6883544921875,839.8450927734375,242.18788146972656
802.7504272460938,875.1295166015625,-554.6883544921875,839.8450927734375,242.18788146972656
814.2652587890625,880.064453125,-550.7821044921875,835.9387817382812,250.0003967285156
815.9102783203125,880.064453125,-550.7821044921875,835.9387817382812,250.0003967285156
819.2001953125,884.9994506835938,-539.0633544921875,855.4700927734375,250.0003967285156
819.2001953125,884.9994506835938,-550.7821044921875,828.1262817382812,246.09413146972656
853.7448120117188,893.2243041992188,-546.8758544921875,839.8450927734375,246.09413146972656
834.0050048828125,889.9343872070312,-566.4071655273438,816.4075317382812,246.09413146972656
834.0050048828125,889.9343872070312,-558.5946044921875,839.8450927734375,242.18788146972656
855.3897705078125,889.9343872070312,-562.5008544921875,832.0325317382812,242.18788146972656
855.3897705078125,889.9343872070312,-523.4382934570311,839.8450927734375,253.9066467285156
837.2949829101562,886.6444091796875,-523.4382934570311,839.8450927734375,253.9066467285156
842.2299194335938,883.3544311523438,-554.6883544921875,843.7513427734375,253.9066467285156
842.2299194335938,883.3544311523438,-550.7821044921875,843.7513427734375,238.2816162109375
837.2949829101562,881.70947265625,-550.7821044921875,843.7513427734375,238.2816162109375
830.715087890625,870.194580078125,-550.7821044921875,843.7513427734375,238.2816162109375
837.2949829101562,876.7745361328125,-519.5320434570311,816.4075317382812,257.81289672851557
825.7801513671875,873.4845581054688,-519.5320434570311,816.4075317382812,257.81289672851557
842.2299194335938,912.964111328125,-546.8758544921875,855.4700927734375,269.5316772460937
842.2299194335938,912.964111328125,-546.8758544921875,867.1888427734375,277.3441772460937
812.6203002929688,912.964111328125,-546.8758544921875,867.1888427734375,277.3441772460937
807.6853637695312,894.8693237304688,-562.5008544921875,820.3137817382812,304.68798828125
807.6853637695312,894.8693237304688,-562.5008544921875,855.4700927734375,289.0629577636719
809.330322265625,863.6146850585938,-562.5008544921875,855.4700927734375,289.0629577636719
814.2652587890625,850.454833984375,-531.2508544921875,804.6887817382812,296.8754577636719
810.9752807617188,847.1648559570312,-531.2508544921875,804.6887817382812,296.8754577636719
817.5552368164062,845.5198974609375,-531.2508544921875,804.6887817382812,296.8754577636719
807.6853637695312,838.9400024414062,-535.1571044921875,875.0013427734375,304.68798828125
797.8154907226562,829.070068359375,-527.3446044921875,878.9076538085938,312.50048828125
797.8154907226562,829.070068359375,-535.1571044921875,867.1888427734375,312.50048828125
792.8805541992188,827.4251098632812,-535.1571044921875,867.1888427734375,312.50048828125
784.6556396484375,817.5552368164062,-535.1571044921875,859.3763427734375,273.4379272460937
784.6556396484375,817.5552368164062,-523.4382934570311,808.5950317382812,269.5316772460937
763.2708740234375,820.84521484375,-523.4382934570311,808.5950317382812,269.5316772460937
766.5608520507812,824.1351318359375,-519.5320434570311,820.3137817382812,238.2816162109375
761.6259155273438,835.6500244140625,-519.5320434570311,820.3137817382812,238.2816162109375
758.3359375,832.3600463867188,-484.3757629394531,871.0950927734375,273.4379272460937
773.1407470703125,845.5198974609375,-480.4695129394531,882.8139038085938,277.3441772460937
773.1407470703125,845.5198974609375,-480.4695129394531,890.6264038085938,289.0629577636719
769.850830078125,852.0997924804688,-480.4695129394531,890.6264038085938,289.0629577636719
774.7857666015625,866.9046630859375,-480.4695129394531,890.6264038085938,289.0629577636719
776.4307250976562,866.9046630859375,-496.0945129394531,867.1888427734375,277.3441772460937
774.7857666015625,852.0997924804688,-503.90704345703125,871.0950927734375,289.0629577636719
771.4957885742188,850.454833984375,-503.90704345703125,871.0950927734375,289.0629577636719
771.4957885742188,850.454833984375,-519.5320434570311,863.2825927734375,289.0629577636719
741.8861083984375,817.5552368164062,-492.1882629394531,855.4700927734375,292.9692077636719
766.5608520507812,834.0050048828125,-496.0945129394531,878.9076538085938,296.8754577636719
766.5608520507812,834.0050048828125,-562.5008544921875,863.2825927734375,265.6254272460937
756.6909790039062,832.3600463867188,-554.6883544921875,835.9387817382812,273.4379272460937
778.07568359375,806.0403442382812,-531.2508544921875,828.1262817382812,296.8754577636719
799.46044921875,809.330322265625,-531.2508544921875,828.1262817382812,296.8754577636719
789.590576171875,853.7448120117188,-496.0945129394531,871.0950927734375,296.8754577636719
786.3005981445312,863.6146850585938,-507.81329345703125,859.3763427734375,277.3441772460937
787.945556640625,880.064453125,-515.6257934570311,816.4075317382812,269.5316772460937
764.9158325195312,886.6444091796875,-515.6257934570311,816.4075317382812,269.5316772460937
769.850830078125,921.18896484375,-523.4382934570311,847.6575927734375,285.1567077636719
771.4957885742188,921.18896484375,-554.6883544921875,824.2200317382812,277.3441772460937
768.205810546875,914.6090698242188,-554.6883544921875,824.2200317382812,277.3441772460937
761.6259155273438,911.319091796875,-558.5946044921875,824.2200317382812,277.3441772460937
794.5255126953125,886.6444091796875,-558.5946044921875,824.2200317382812,277.3441772460937
774.7857666015625,919.5440063476562,-550.7821044921875,796.876220703125,296.8754577636719
781.3656616210938,919.5440063476562,-558.5946044921875,832.0325317382812,300.7817077636719
781.3656616210938,919.5440063476562,-566.4071655273438,816.4075317382812,304.68798828125
784.6556396484375,888.2893676757812,-566.4071655273438,816.4075317382812,304.68798828125
789.590576171875,886.6444091796875,-546.8758544921875,847.6575927734375,312.50048828125
809.330322265625,880.064453125,-546.8758544921875,847.6575927734375,312.50048828125
817.5552368164062,873.4845581054688,-570.3134155273438,832.0325317382812,300.7817077636719
815.9102783203125,880.064453125,-570.3134155273438,832.0325317382812,300.7817077636719
827.4251098632812,866.9046630859375,-542.9696044921875,839.8450927734375,320.31298828125
812.6203002929688,875.1295166015625,-542.9696044921875,839.8450927734375,320.31298828125
819.2001953125,850.454833984375,-570.3134155273438,820.3137817382812,332.0317687988281
829.070068359375,843.8749389648438,-511.71954345703125,839.8450927734375,351.56304931640625
852.0997924804688,837.2949829101562,-511.71954345703125,839.8450927734375,351.56304931640625
891.579345703125,847.1648559570312,-484.3757629394531,839.8450927734375,335.9380187988281
888.2893676757812,860.32470703125,-472.656982421875,835.9387817382812,324.2192687988281
863.6146850585938,876.7745361328125,-500.00079345703125,855.4700927734375,304.68798828125
850.454833984375,873.4845581054688,-500.00079345703125,855.4700927734375,304.68798828125
847.1648559570312,866.9046630859375,-523.4382934570311,835.9387817382812,289.0629577636719
824.1351318359375,870.194580078125,-542.9696044921875,855.4700927734375,265.6254272460937
824.1351318359375,870.194580078125,-535.1571044921875,832.0325317382812,273.4379272460937
825.7801513671875,871.839599609375,-519.5320434570311,839.8450927734375,289.0629577636719
835.6500244140625,878.4194946289062,-519.5320434570311,839.8450927734375,289.0629577636719
832.3600463867188,875.1295166015625,-535.1571044921875,820.3137817382812,296.8754577636719
832.3600463867188,875.1295166015625,-550.7821044921875,832.0325317382812,300.7817077636719
794.5255126953125,873.4845581054688,-558.5946044921875,859.3763427734375,316.40673828125
789.590576171875,873.4845581054688,-558.5946044921875,859.3763427734375,316.40673828125
776.4307250976562,881.70947265625,-535.1571044921875,859.3763427734375,320.31298828125
776.4307250976562,881.70947265625,-531.2508544921875,835.9387817382812,312.50048828125
807.6853637695312,881.70947265625,-523.4382934570311,828.1262817382812,289.0629577636719
810.9752807617188,881.70947265625,-550.7821044921875,804.6887817382812,265.6254272460937
814.2652587890625,883.3544311523438,-546.8758544921875,839.8450927734375,269.5316772460937
827.4251098632812,881.70947265625,-539.0633544921875,820.3137817382812,308.59423828125
827.4251098632812,881.70947265625,-535.1571044921875,812.5012817382812,320.31298828125
815.9102783203125,883.3544311523438,-535.1571044921875,812.5012817382812,320.31298828125
802.7504272460938,873.4845581054688,-535.1571044921875,812.5012817382812,320.31298828125
799.46044921875,868.5496215820312,-535.1571044921875,859.3763427734375,308.59423828125
819.2001953125,871.839599609375,-464.844482421875,855.4700927734375,312.50048828125
815.9102783203125,878.4194946289062,-464.844482421875,855.4700927734375,312.50048828125
819.2001953125,876.7745361328125,-496.0945129394531,851.5638427734375,300.7817077636719
819.2001953125,875.1295166015625,-496.0945129394531,851.5638427734375,300.7817077636719
822.4901733398438,880.064453125,-503.90704345703125,863.2825927734375,296.8754577636719
822.4901733398438,880.064453125,-496.0945129394531,875.0013427734375,300.7817077636719
825.7801513671875,873.4845581054688,-496.0945129394531,875.0013427734375,300.7817077636719
834.0050048828125,870.194580078125,-492.1882629394531,859.3763427734375,300.7817077636719
825.7801513671875,870.194580078125,-496.0945129394531,851.5638427734375,281.2504272460937
825.7801513671875,861.9697265625,-496.0945129394531,851.5638427734375,281.2504272460937
812.6203002929688,866.9046630859375,-492.1882629394531,871.0950927734375,300.7817077636719
817.5552368164062,868.5496215820312,-500.00079345703125,875.0013427734375,289.0629577636719
820.84521484375,863.6146850585938,-492.1882629394531,867.1888427734375,296.8754577636719
815.9102783203125,860.32470703125,-523.4382934570311,851.5638427734375,285.1567077636719
830.715087890625,857.0347290039062,-523.4382934570311,851.5638427734375,285.1567077636719
825.7801513671875,870.194580078125,-488.2820129394531,828.1262817382812,324.2192687988281
845.5198974609375,866.9046630859375,-488.2820129394531,828.1262817382812,324.2192687988281
814.2652587890625,868.5496215820312,-527.3446044921875,878.9076538085938,296.8754577636719
837.2949829101562,866.9046630859375,-527.3446044921875,878.9076538085938,296.8754577636719
840.5849609375,866.9046630859375,-527.3446044921875,878.9076538085938,296.8754577636719
827.4251098632812,868.5496215820312,-500.00079345703125,890.6264038085938,289.0629577636719
829.070068359375,870.194580078125,-500.00079345703125,890.6264038085938,289.0629577636719
843.8749389648438,870.194580078125,-496.0945129394531,832.0325317382812,269.5316772460937
815.9102783203125,870.194580078125,-523.4382934570311,855.4700927734375,277.3441772460937
832.3600463867188,871.839599609375,-523.4382934570311,855.4700927734375,277.3441772460937
815.9102783203125,871.839599609375,-503.90704345703125,855.4700927734375,289.0629577636719
815.9102783203125,866.9046630859375,-503.90704345703125,855.4700927734375,289.0629577636719
807.6853637695312,863.6146850585938,-531.2508544921875,843.7513427734375,281.2504272460937
802.7504272460938,871.839599609375,-527.3446044921875,859.3763427734375,285.1567077636719
827.4251098632812,876.7745361328125,-503.90704345703125,835.9387817382812,273.4379272460937
822.4901733398438,878.4194946289062,-496.0945129394531,839.8450927734375,273.4379272460937
822.4901733398438,878.4194946289062,-500.00079345703125,859.3763427734375,265.6254272460937
832.3600463867188,880.064453125,-503.90704345703125,855.4700927734375,265.6254272460937
829.070068359375,875.1295166015625,-515.6257934570311,855.4700927734375,269.5316772460937
824.1351318359375,873.4845581054688,-515.6257934570311,851.5638427734375,273.4379272460937
825.7801513671875,875.1295166015625,-515.6257934570311,855.4700927734375,277.3441772460937
837.2949829101562,870.194580078125,-515.6257934570311,855.4700927734375,277.3441772460937
832.3600463867188,871.839599609375,-515.6257934570311,855.4700927734375,273.4379272460937
832.3600463867188,871.839599609375,-519.5320434570311,859.3763427734375,273.4379272460937
834.0050048828125,871.839599609375,-519.5320434570311,859.3763427734375,265.6254272460937
832.3600463867188,873.4845581054688,-511.71954345703125,855.4700927734375,265.6254272460937
843.8749389648438,870.194580078125,-507.81329345703125,855.4700927734375,269.5316772460937
843.8749389648438,870.194580078125,-515.6257934570311,847.6575927734375,265.6254272460937
834.0050048828125,868.5496215820312,-515.6257934570311,847.6575927734375,265.6254272460937
815.9102783203125,865.2596435546875,-515.6257934570311,847.6575927734375,265.6254272460937
830.715087890625,861.9697265625,-515.6257934570311,851.5638427734375,265.6254272460937
812.6203002929688,857.0347290039062,-511.71954345703125,859.3763427734375,273.4379272460937
815.9102783203125,852.0997924804688,-519.5320434570311,867.1888427734375,261.71914672851557
819.2001953125,860.32470703125,-519.5320434570311,867.1888427734375,261.71914672851557
834.0050048828125,861.9697265625,-515.6257934570311,855.4700927734375,265.6254272460937
850.454833984375,861.9697265625,-515.6257934570311,855.4700927734375,265.6254272460937
814.2652587890625,865.2596435546875,-515.6257934570311,855.4700927734375,265.6254272460937
853.7448120117188,870.194580078125,-507.81329345703125,867.1888427734375,257.81289672851557
853.7448120117188,870.194580078125,-507.81329345703125,851.5638427734375,265.6254272460937
812.6203002929688,873.4845581054688,-507.81329345703125,851.5638427734375,265.6254272460937
819.2001953125,878.4194946289062,-515.6257934570311,867.1888427734375,265.6254272460937
804.3953857421875,870.194580078125,-527.3446044921875,847.6575927734375,261.71914672851557
814.2652587890625,865.2596435546875,-527.3446044921875,847.6575927734375,261.71914672851557
814.2652587890625,865.2596435546875,-515.6257934570311,851.5638427734375,257.81289672851557
801.1054077148438,850.454833984375,-511.71954345703125,863.2825927734375,253.9066467285156
824.1351318359375,870.194580078125,-519.5320434570311,843.7513427734375,265.6254272460937
819.2001953125,870.194580078125,-511.71954345703125,855.4700927734375,273.4379272460937
835.6500244140625,871.839599609375,-511.71954345703125,855.4700927734375,273.4379272460937
824.1351318359375,868.5496215820312,-511.71954345703125,855.4700927734375,273.4379272460937
822.4901733398438,868.5496215820312,-527.3446044921875,855.4700927734375,285.1567077636719
825.7801513671875,861.9697265625,-527.3446044921875,855.4700927734375,285.1567077636719
812.6203002929688,866.9046630859375,-527.3446044921875,855.4700927734375,285.1567077636719
838.9400024414062,866.9046630859375,-519.5320434570311,859.3763427734375,273.4379272460937
832.3600463867188,868.5496215820312,-519.5320434570311,859.3763427734375,273.4379272460937
819.2001953125,861.9697265625,-519.5320434570311,859.3763427734375,273.4379272460937
822.4901733398438,866.9046630859375,-492.1882629394531,863.2825927734375,281.2504272460937
824.1351318359375,868.5496215820312,-503.90704345703125,847.6575927734375,281.2504272460937
822.4901733398438,863.6146850585938,-523.4382934570311,851.5638427734375,277.3441772460937
822.4901733398438,863.6146850585938,-519.5320434570311,859.3763427734375,277.3441772460937
817.5552368164062,855.3897705078125,-511.71954345703125,847.6575927734375,285.1567077636719
842.2299194335938,860.32470703125,-527.3446044921875,839.8450927734375,292.9692077636719
819.2001953125,847.1648559570312,-511.71954345703125,851.5638427734375,273.4379272460937
796.1704711914062,852.0997924804688,-507.81329345703125,855.4700927734375,277.3441772460937
830.715087890625,858.6797485351562,-503.90704345703125,832.0325317382812,285.1567077636719
802.7504272460938,863.6146850585938,-503.90704345703125,832.0325317382812,285.1567077636719
791.2355346679688,880.064453125,-535.1571044921875,871.0950927734375,285.1567077636719
791.2355346679688,880.064453125,-550.7821044921875,839.8450927734375,281.2504272460937
822.4901733398438,898.1592407226562,-550.7821044921875,839.8450927734375,281.2504272460937
796.1704711914062,893.2243041992188,-550.7821044921875,839.8450927734375,281.2504272460937
812.6203002929688,880.064453125,-535.1571044921875,828.1262817382812,292.9692077636719
812.6203002929688,880.064453125,-539.0633544921875,847.6575927734375,300.7817077636719
852.0997924804688,857.0347290039062,-539.0633544921875,847.6575927734375,300.7817077636719
845.5198974609375,858.6797485351562,-515.6257934570311,843.7513427734375,332.0317687988281
845.5198974609375,858.6797485351562,-523.4382934570311,851.5638427734375,339.8442687988281
842.2299194335938,857.0347290039062,-523.4382934570311,851.5638427734375,339.8442687988281
824.1351318359375,853.7448120117188,-523.4382934570311,851.5638427734375,339.8442687988281
820.84521484375,853.7448120117188,-535.1571044921875,835.9387817382812,343.75054931640625
820.84521484375,853.7448120117188,-515.6257934570311,839.8450927734375,351.56304931640625
834.0050048828125,857.0347290039062,-515.6257934570311,839.8450927734375,351.56304931640625
832.3600463867188,847.1648559570312,-515.6257934570311,839.8450927734375,351.56304931640625
820.84521484375,850.454833984375,-527.3446044921875,824.2200317382812,351.56304931640625
814.2652587890625,840.5849609375,-527.3446044921875,824.2200317382812,351.56304931640625
814.2652587890625,842.2299194335938,-527.3446044921875,824.2200317382812,351.56304931640625
837.2949829101562,843.8749389648438,-519.5320434570311,843.7513427734375,355.46929931640625
817.5552368164062,842.2299194335938,-527.3446044921875,839.8450927734375,339.8442687988281
817.5552368164062,842.2299194335938,-519.5320434570311,847.6575927734375,332.0317687988281
817.5552368164062,842.2299194335938,-503.90704345703125,839.8450927734375,335.9380187988281
832.3600463867188,845.5198974609375,-503.90704345703125,839.8450927734375,335.9380187988281
832.3600463867188,848.8098754882812,-503.90704345703125,839.8450927734375,335.9380187988281
834.0050048828125,850.454833984375,-523.4382934570311,871.0950927734375,308.59423828125
837.2949829101562,860.32470703125,-523.4382934570311,871.0950927734375,308.59423828125
825.7801513671875,853.7448120117188,-503.90704345703125,855.4700927734375,332.0317687988281
825.7801513671875,853.7448120117188,-531.2508544921875,882.8139038085938,308.59423828125
853.7448120117188,809.330322265625,-457.0319519042969,835.9387817382812,320.31298828125
829.070068359375,850.454833984375,-476.563232421875,847.6575927734375,324.2192687988281
806.0403442382812,855.3897705078125,-503.90704345703125,851.5638427734375,320.31298828125
806.0403442382812,855.3897705078125,-515.6257934570311,867.1888427734375,308.59423828125
835.6500244140625,860.32470703125,-496.0945129394531,851.5638427734375,312.50048828125
827.4251098632812,860.32470703125,-480.4695129394531,855.4700927734375,300.7817077636719
827.4251098632812,861.9697265625,-480.4695129394531,890.6264038085938,164.06275939941406
845.5198974609375,860.32470703125,-480.4695129394531,890.6264038085938,164.06275939941406
837.2949829101562,860.32470703125,-457.0319519042969,875.0013427734375,167.96900939941406
834.0050048828125,853.7448120117188,-496.0945129394531,863.2825927734375,214.84408569335938
834.0050048828125,855.3897705078125,-496.0945129394531,863.2825927734375,214.84408569335938
840.5849609375,852.0997924804688,-496.0945129394531,863.2825927734375,214.84408569335938
834.0050048828125,857.0347290039062,-511.71954345703125,863.2825927734375,257.81289672851557
835.6500244140625,853.7448120117188,-484.3757629394531,871.0950927734375,250.0003967285156
835.6500244140625,853.7448120117188,-480.4695129394531,886.7201538085938,250.0003967285156
847.1648559570312,858.6797485351562,-476.563232421875,886.7201538085938,253.9066467285156
847.1648559570312,858.6797485351562,-484.3757629394531,878.9076538085938,269.5316772460937
857.0347290039062,855.3897705078125,-484.3757629394531,878.9076538085938,269.5316772460937
853.7448120117188,857.0347290039062,-507.81329345703125,859.3763427734375,300.7817077636719
853.7448120117188,857.0347290039062,-480.4695129394531,878.9076538085938,312.50048828125
843.8749389648438,853.7448120117188,-480.4695129394531,878.9076538085938,312.50048828125
845.5198974609375,850.454833984375,-480.4695129394531,878.9076538085938,312.50048828125
824.1351318359375,845.5198974609375,-488.2820129394531,871.0950927734375,328.1255187988281
824.1351318359375,845.5198974609375,-500.00079345703125,871.0950927734375,324.2192687988281
824.1351318359375,845.5198974609375,-500.00079345703125,863.2825927734375,328.1255187988281
837.2949829101562,845.5198974609375,-500.00079345703125,863.2825927734375,328.1255187988281
838.9400024414062,847.1648559570312,-500.00079345703125,863.2825927734375,328.1255187988281
845.5198974609375,843.8749389648438,-500.00079345703125,863.2825927734375,328.1255187988281
843.8749389648438,852.0997924804688,-476.563232421875,859.3763427734375,308.59423828125
852.0997924804688,852.0997924804688,-480.4695129394531,867.1888427734375,308.59423828125
855.3897705078125,853.7448120117188,-480.4695129394531,867.1888427734375,308.59423828125
827.4251098632812,852.0997924804688,-480.4695129394531,855.4700927734375,304.68798828125
852.0997924804688,850.454833984375,-480.4695129394531,855.4700927734375,304.68798828125
852.0997924804688,852.0997924804688,-480.4695129394531,855.4700927734375,304.68798828125
832.3600463867188,855.3897705078125,-472.656982421875,863.2825927734375,304.68798828125
848.8098754882812,855.3897705078125,-472.656982421875,863.2825927734375,304.68798828125
834.0050048828125,855.3897705078125,-488.2820129394531,867.1888427734375,304.68798828125
845.5198974609375,853.7448120117188,-488.2820129394531,867.1888427734375,304.68798828125
838.9400024414062,853.7448120117188,-484.3757629394531,859.3763427734375,308.59423828125
855.3897705078125,857.0347290039062,-476.563232421875,855.4700927734375,316.40673828125
840.5849609375,848.8098754882812,-476.563232421875,855.4700927734375,316.40673828125
837.2949829101562,842.2299194335938,-476.563232421875,855.4700927734375,304.68798828125
835.6500244140625,843.8749389648438,-476.563232421875,855.4700927734375,304.68798828125
817.5552368164062,842.2299194335938,-476.563232421875,859.3763427734375,308.59423828125
820.84521484375,842.2299194335938,-476.563232421875,859.3763427734375,308.59423828125
842.2299194335938,845.5198974609375,-492.1882629394531,863.2825927734375,308.59423828125
838.9400024414062,855.3897705078125,-492.1882629394531,863.2825927734375,308.59423828125
863.6146850585938,855.3897705078125,-480.4695129394531,863.2825927734375,308.59423828125
845.5198974609375,855.3897705078125,-492.1882629394531,863.2825927734375,308.59423828125
845.5198974609375,865.2596435546875,-492.1882629394531,863.2825927734375,308.59423828125
845.5198974609375,865.2596435546875,-488.2820129394531,867.1888427734375,304.68798828125
824.1351318359375,863.6146850585938,-484.3757629394531,859.3763427734375,304.68798828125
815.9102783203125,865.2596435546875,-488.2820129394531,863.2825927734375,304.68798828125
838.9400024414062,863.6146850585938,-476.563232421875,863.2825927734375,308.59423828125
815.9102783203125,857.0347290039062,-492.1882629394531,855.4700927734375,304.68798828125
852.0997924804688,855.3897705078125,-492.1882629394531,863.2825927734375,300.7817077636719
838.9400024414062,845.5198974609375,-492.1882629394531,863.2825927734375,300.7817077636719
857.0347290039062,857.0347290039062,-488.2820129394531,851.5638427734375,308.59423828125
850.454833984375,852.0997924804688,-488.2820129394531,851.5638427734375,308.59423828125
852.0997924804688,853.7448120117188,-492.1882629394531,867.1888427734375,308.59423828125
852.0997924804688,853.7448120117188,-496.0945129394531,859.3763427734375,308.59423828125
848.8098754882812,861.9697265625,-496.0945129394531,859.3763427734375,308.59423828125
843.8749389648438,870.194580078125,-488.2820129394531,855.4700927734375,308.59423828125
843.8749389648438,870.194580078125,-472.656982421875,867.1888427734375,312.50048828125
850.454833984375,858.6797485351562,-472.656982421875,867.1888427734375,312.50048828125
838.9400024414062,873.4845581054688,-472.656982421875,867.1888427734375,312.50048828125
796.1704711914062,896.5142822265625,-488.2820129394531,835.9387817382812,273.4379272460937
796.1704711914062,896.5142822265625,-500.00079345703125,855.4700927734375,273.4379272460937
812.6203002929688,899.8042602539062,-500.00079345703125,855.4700927734375,273.4379272460937
822.4901733398438,866.9046630859375,-500.00079345703125,855.4700927734375,273.4379272460937
834.0050048828125,861.9697265625,-503.90704345703125,875.0013427734375,320.31298828125
832.3600463867188,853.7448120117188,-503.90704345703125,875.0013427734375,320.31298828125
845.5198974609375,852.0997924804688,-519.5320434570311,843.7513427734375,324.2192687988281
843.8749389648438,853.7448120117188,-519.5320434570311,843.7513427734375,324.2192687988281
837.2949829101562,842.2299194335938,-480.4695129394531,890.6264038085938,324.2192687988281
852.0997924804688,860.32470703125,-457.0319519042969,843.7513427734375,332.0317687988281
852.0997924804688,860.32470703125,-460.938232421875,828.1262817382812,351.56304931640625
845.5198974609375,853.7448120117188,-500.00079345703125,871.0950927734375,343.75054931640625
824.1351318359375,852.0997924804688,-531.2508544921875,832.0325317382812,339.8442687988281
842.2299194335938,852.0997924804688,-531.2508544921875,832.0325317382812,339.8442687988281
850.454833984375,858.6797485351562,-531.2508544921875,832.0325317382812,339.8442687988281
883.3544311523438,820.84521484375,-531.2508544921875,820.3137817382812,343.75054931640625
853.7448120117188,817.5552368164062,-519.5320434570311,824.2200317382812,351.56304931640625
853.7448120117188,817.5552368164062,-515.6257934570311,843.7513427734375,359.37554931640625
870.194580078125,804.3953857421875,-507.81329345703125,855.4700927734375,339.8442687988281
858.6797485351562,819.2001953125,-507.81329345703125,839.8450927734375,339.8442687988281
807.6853637695312,847.1648559570312,-476.563232421875,875.0013427734375,343.75054931640625
827.4251098632812,842.2299194335938,-488.2820129394531,839.8450927734375,308.59423828125
827.4251098632812,842.2299194335938,-492.1882629394531,820.3137817382812,308.59423828125
827.4251098632812,842.2299194335938,-511.71954345703125,824.2200317382812,304.68798828125
807.6853637695312,835.6500244140625,-511.71954345703125,824.2200317382812,304.68798828125
806.0403442382812,837.2949829101562,-515.6257934570311,839.8450927734375,308.59423828125
810.9752807617188,840.5849609375,-562.5008544921875,808.5950317382812,316.40673828125
835.6500244140625,835.6500244140625,-500.00079345703125,843.7513427734375,300.7817077636719
814.2652587890625,832.3600463867188,-500.00079345703125,843.7513427734375,300.7817077636719
804.3953857421875,845.5198974609375,-500.00079345703125,843.7513427734375,300.7817077636719
815.9102783203125,850.454833984375,-519.5320434570311,859.3763427734375,316.40673828125
814.2652587890625,852.0997924804688,-519.5320434570311,859.3763427734375,316.40673828125
809.330322265625,848.8098754882812,-539.0633544921875,812.5012817382812,335.9380187988281
827.4251098632812,850.454833984375,-539.0633544921875,812.5012817382812,335.9380187988281
838.9400024414062,852.0997924804688,-539.0633544921875,812.5012817382812,335.9380187988281
838.9400024414062,852.0997924804688,-546.8758544921875,796.876220703125,324.2192687988281
838.9400024414062,852.0997924804688,-539.0633544921875,824.2200317382812,316.40673828125
838.9400024414062,852.0997924804688,-519.5320434570311,843.7513427734375,320.31298828125
842.2299194335938,847.1648559570312,-519.5320434570311,843.7513427734375,320.31298828125
815.9102783203125,843.8749389648438,-519.5320434570311,843.7513427734375,320.31298828125
817.5552368164062,843.8749389648438,-519.5320434570311,820.3137817382812,328.1255187988281
837.2949829101562,848.8098754882812,-531.2508544921875,816.4075317382812,328.1255187988281
832.3600463867188,842.2299194335938,-519.5320434570311,839.8450927734375,312.50048828125
832.3600463867188,842.2299194335938,-511.71954345703125,839.8450927734375,308.59423828125
806.0403442382812,835.6500244140625,-527.3446044921875,851.5638427734375,312.50048828125
822.4901733398438,835.6500244140625,-527.3446044921875,851.5638427734375,312.50048828125
820.84521484375,842.2299194335938,-527.3446044921875,816.4075317382812,316.40673828125
820.84521484375,842.2299194335938,-527.3446044921875,820.3137817382812,316.40673828125
840.5849609375,847.1648559570312,-527.3446044921875,820.3137817382812,316.40673828125
810.9752807617188,847.1648559570312,-527.3446044921875,820.3137817382812,316.40673828125
824.1351318359375,853.7448120117188,-527.3446044921875,820.3137817382812,316.40673828125
819.2001953125,845.5198974609375,-496.0945129394531,851.5638427734375,332.0317687988281
819.2001953125,845.5198974609375,-562.5008544921875,796.876220703125,308.59423828125
835.6500244140625,848.8098754882812,-562.5008544921875,796.876220703125,308.59423828125
838.9400024414062,855.3897705078125,-503.90704345703125,835.9387817382812,316.40673828125
810.9752807617188,858.6797485351562,-523.4382934570311,832.0325317382812,320.31298828125
801.1054077148438,884.9994506835938,-496.0945129394531,839.8450927734375,316.40673828125
801.1054077148438,884.9994506835938,-507.81329345703125,843.7513427734375,316.40673828125
787.945556640625,881.70947265625,-515.6257934570311,835.9387817382812,324.2192687988281
809.330322265625,866.9046630859375,-515.6257934570311,835.9387817382812,324.2192687988281
832.3600463867188,848.8098754882812,-515.6257934570311,835.9387817382812,332.0317687988281
832.3600463867188,848.8098754882812,-503.90704345703125,832.0325317382812,343.75054931640625
814.2652587890625,842.2299194335938,-503.90704345703125,832.0325317382812,343.75054931640625
847.1648559570312,848.8098754882812,-507.81329345703125,828.1262817382812,343.75054931640625
847.1648559570312,848.8098754882812,-507.81329345703125,832.0325317382812,339.8442687988281
847.1648559570312,848.8098754882812,-507.81329345703125,839.8450927734375,335.9380187988281
847.1648559570312,848.8098754882812,-500.00079345703125,839.8450927734375,343.75054931640625
858.6797485351562,848.8098754882812,-500.00079345703125,839.8450927734375,343.75054931640625
820.84521484375,843.8749389648438,-500.00079345703125,839.8450927734375,343.75054931640625
842.2299194335938,840.5849609375,-511.71954345703125,828.1262817382812,355.46929931640625
842.2299194335938,840.5849609375,-507.81329345703125,832.0325317382812,359.37554931640625
820.84521484375,848.8098754882812,-507.81329345703125,832.0325317382812,359.37554931640625
871.839599609375,855.3897705078125,-507.81329345703125,832.0325317382812,359.37554931640625
832.3600463867188,852.0997924804688,-472.656982421875,851.5638427734375,359.37554931640625
830.715087890625,843.8749389648438,-468.750732421875,851.5638427734375,359.37554931640625
843.8749389648438,840.5849609375,-472.656982421875,839.8450927734375,347.65679931640625
843.8749389648438,840.5849609375,-488.2820129394531,847.6575927734375,351.56304931640625
820.84521484375,838.9400024414062,-488.2820129394531,847.6575927734375,351.56304931640625
824.1351318359375,840.5849609375,-488.2820129394531,847.6575927734375,351.56304931640625
824.1351318359375,845.5198974609375,-457.0319519042969,871.0950927734375,347.65679931640625
824.1351318359375,845.5198974609375,-453.1257019042969,847.6575927734375,355.46929931640625
835.6500244140625,850.454833984375,-476.563232421875,839.8450927734375,347.65679931640625
835.6500244140625,850.454833984375,-488.2820129394531,851.5638427734375,359.37554931640625
817.5552368164062,845.5198974609375,-488.2820129394531,851.5638427734375,359.37554931640625
842.2299194335938,848.8098754882812,-484.3757629394531,835.9387817382812,355.46929931640625
855.3897705078125,855.3897705078125,-484.3757629394531,835.9387817382812,355.46929931640625
830.715087890625,853.7448120117188,-492.1882629394531,832.0325317382812,351.56304931640625
827.4251098632812,853.7448120117188,-472.656982421875,843.7513427734375,359.37554931640625
853.7448120117188,855.3897705078125,-464.844482421875,855.4700927734375,351.56304931640625
853.7448120117188,855.3897705078125,-484.3757629394531,851.5638427734375,355.46929931640625
861.9697265625,855.3897705078125,-484.3757629394531,851.5638427734375,355.46929931640625
832.3600463867188,850.454833984375,-480.4695129394531,843.7513427734375,347.65679931640625
840.5849609375,850.454833984375,-480.4695129394531,843.7513427734375,347.65679931640625
822.4901733398438,838.9400024414062,-484.3757629394531,859.3763427734375,339.8442687988281
820.84521484375,842.2299194335938,-484.3757629394531,847.6575927734375,351.56304931640625
825.7801513671875,845.5198974609375,-484.3757629394531,843.7513427734375,339.8442687988281
825.7801513671875,845.5198974609375,-484.3757629394531,847.6575927734375,339.8442687988281
827.4251098632812,848.8098754882812,-472.656982421875,843.7513427734375,347.65679931640625
847.1648559570312,847.1648559570312,-484.3757629394531,875.0013427734375,351.56304931640625
847.1648559570312,847.1648559570312,-488.2820129394531,863.2825927734375,343.75054931640625
835.6500244140625,853.7448120117188,-488.2820129394531,863.2825927734375,343.75054931640625
840.5849609375,855.3897705078125,-488.2820129394531,863.2825927734375,343.75054931640625
857.0347290039062,845.5198974609375,-496.0945129394531,828.1262817382812,339.8442687988281
880.064453125,812.6203002929688,-503.90704345703125,835.9387817382812,339.8442687988281
889.9343872070312,814.2652587890625,-500.00079345703125,867.1888427734375,351.56304931640625
878.4194946289062,825.7801513671875,-492.1882629394531,839.8450927734375,335.9380187988281
858.6797485351562,830.715087890625,-488.2820129394531,835.9387817382812,335.9380187988281
860.32470703125,842.2299194335938,-507.81329345703125,851.5638427734375,328.1255187988281
860.32470703125,842.2299194335938,-484.3757629394531,875.0013427734375,328.1255187988281
843.8749389648438,842.2299194335938,-484.3757629394531,875.0013427734375,328.1255187988281
829.070068359375,848.8098754882812,-484.3757629394531,875.0013427734375,328.1255187988281
827.4251098632812,853.7448120117188,-480.4695129394531,847.6575927734375,312.50048828125
834.0050048828125,853.7448120117188,-480.4695129394531,847.6575927734375,312.50048828125
834.0050048828125,853.7448120117188,-503.90704345703125,847.6575927734375,292.9692077636719
829.070068359375,850.454833984375,-519.5320434570311,847.6575927734375,292.9692077636719
799.46044921875,855.3897705078125,-511.71954345703125,847.6575927734375,289.0629577636719
799.46044921875,855.3897705078125,-507.81329345703125,871.0950927734375,285.1567077636719
838.9400024414062,848.8098754882812,-507.81329345703125,871.0950927734375,285.1567077636719
840.5849609375,853.7448120117188,-503.90704345703125,859.3763427734375,281.2504272460937
853.7448120117188,847.1648559570312,-527.3446044921875,855.4700927734375,281.2504272460937
845.5198974609375,847.1648559570312,-500.00079345703125,882.8139038085938,285.1567077636719
853.7448120117188,852.0997924804688,-503.90704345703125,871.0950927734375,281.2504272460937
857.0347290039062,857.0347290039062,-503.90704345703125,871.0950927734375,281.2504272460937
842.2299194335938,855.3897705078125,-511.71954345703125,863.2825927734375,273.4379272460937
852.0997924804688,853.7448120117188,-519.5320434570311,859.3763427734375,265.6254272460937
832.3600463867188,850.454833984375,-519.5320434570311,859.3763427734375,265.6254272460937
838.9400024414062,857.0347290039062,-492.1882629394531,835.9387817382812,273.4379272460937
829.070068359375,853.7448120117188,-515.6257934570311,859.3763427734375,277.3441772460937
847.1648559570312,857.0347290039062,-515.6257934570311,851.5638427734375,281.2504272460937
847.1648559570312,857.0347290039062,-519.5320434570311,855.4700927734375,277.3441772460937
829.070068359375,852.0997924804688,-519.5320434570311,855.4700927734375,277.3441772460937
842.2299194335938,843.8749389648438,-519.5320434570311,855.4700927734375,277.3441772460937
824.1351318359375,843.8749389648438,-511.71954345703125,851.5638427734375,285.1567077636719
824.1351318359375,843.8749389648438,-515.6257934570311,855.4700927734375,281.2504272460937
845.5198974609375,843.8749389648438,-515.6257934570311,855.4700927734375,277.3441772460937
819.2001953125,845.5198974609375,-503.90704345703125,863.2825927734375,277.3441772460937
819.2001953125,845.5198974609375,-503.90704345703125,859.3763427734375,277.3441772460937
838.9400024414062,850.454833984375,-503.90704345703125,859.3763427734375,277.3441772460937
853.7448120117188,853.7448120117188,-523.4382934570311,847.6575927734375,281.2504272460937
850.454833984375,848.8098754882812,-519.5320434570311,863.2825927734375,281.2504272460937
843.8749389648438,852.0997924804688,-507.81329345703125,843.7513427734375,281.2504272460937
838.9400024414062,850.454833984375,-519.5320434570311,851.5638427734375,269.5316772460937
843.8749389648438,858.6797485351562,-511.71954345703125,847.6575927734375,273.4379272460937
832.3600463867188,843.8749389648438,-496.0945129394531,855.4700927734375,296.8754577636719
827.4251098632812,845.5198974609375,-523.4382934570311,863.2825927734375,304.68798828125
830.715087890625,842.2299194335938,-523.4382934570311,863.2825927734375,304.68798828125
835.6500244140625,843.8749389648438,-523.4382934570311,863.2825927734375,304.68798828125
847.1648559570312,852.0997924804688,-515.6257934570311,851.5638427734375,300.7817077636719
847.1648559570312,852.0997924804688,-507.81329345703125,859.3763427734375,300.7817077636719
827.4251098632812,860.32470703125,-507.81329345703125,859.3763427734375,300.7817077636719
840.5849609375,857.0347290039062,-507.81329345703125,859.3763427734375,300.7817077636719
837.2949829101562,860.32470703125,-507.81329345703125,859.3763427734375,292.9692077636719
834.0050048828125,850.454833984375,-531.2508544921875,847.6575927734375,296.8754577636719
858.6797485351562,830.715087890625,-527.3446044921875,859.3763427734375,300.7817077636719
860.32470703125,834.0050048828125,-523.4382934570311,839.8450927734375,300.7817077636719
850.454833984375,838.9400024414062,-519.5320434570311,820.3137817382812,292.9692077636719
842.2299194335938,847.1648559570312,-527.3446044921875,843.7513427734375,281.2504272460937
848.8098754882812,850.454833984375,-527.3446044921875,843.7513427734375,281.2504272460937
843.8749389648438,843.8749389648438,-500.00079345703125,871.0950927734375,281.2504272460937
847.1648559570312,835.6500244140625,-500.00079345703125,871.0950927734375,281.2504272460937
834.0050048828125,837.2949829101562,-527.3446044921875,851.5638427734375,281.2504272460937
843.8749389648438,858.6797485351562,-527.3446044921875,851.5638427734375,277.3441772460937
843.8749389648438,858.6797485351562,-519.5320434570311,855.4700927734375,281.2504272460937
852.0997924804688,850.454833984375,-507.81329345703125,847.6575927734375,296.8754577636719
852.0997924804688,850.454833984375,-531.2508544921875,839.8450927734375,292.9692077636719
858.6797485351562,845.5198974609375,-500.00079345703125,867.1888427734375,273.4379272460937
840.5849609375,857.0347290039062,-500.00079345703125,867.1888427734375,281.2504272460937
825.7801513671875,853.7448120117188,-515.6257934570311,855.4700927734375,292.9692077636719
845.5198974609375,852.0997924804688,-515.6257934570311,855.4700927734375,292.9692077636719
832.3600463867188,852.0997924804688,-527.3446044921875,851.5638427734375,289.0629577636719
832.3600463867188,852.0997924804688,-531.2508544921875,851.5638427734375,285.1567077636719
832.3600463867188,852.0997924804688,-542.9696044921875,835.9387817382812,285.1567077636719
832.3600463867188,852.0997924804688,-531.2508544921875,839.8450927734375,281.2504272460937
830.715087890625,853.7448120117188,-531.2508544921875,839.8450927734375,281.2504272460937
850.454833984375,857.0347290039062,-531.2508544921875,839.8450927734375,281.2504272460937
835.6500244140625,855.3897705078125,-515.6257934570311,847.6575927734375,289.0629577636719
830.715087890625,852.0997924804688,-515.6257934570311,847.6575927734375,289.0629577636719
822.4901733398438,848.8098754882812,-511.71954345703125,851.5638427734375,281.2504272460937
850.454833984375,850.454833984375,-507.81329345703125,843.7513427734375,289.0629577636719
840.5849609375,853.7448120117188,-503.90704345703125,859.3763427734375,289.0629577636719
857.0347290039062,850.454833984375,-503.90704345703125,859.3763427734375,289.0629577636719
843.8749389648438,850.454833984375,-523.4382934570311,839.8450927734375,281.2504272460937
840.5849609375,852.0997924804688,-531.2508544921875,851.5638427734375,285.1567077636719
853.7448120117188,857.0347290039062,-515.6257934570311,859.3763427734375,289.0629577636719
853.7448120117188,857.0347290039062,-503.90704345703125,851.5638427734375,296.8754577636719
853.7448120117188,857.0347290039062,-496.0945129394531,859.3763427734375,300.7817077636719
838.9400024414062,850.454833984375,-496.0945129394531,859.3763427734375,300.7817077636719
837.2949829101562,845.5198974609375,-515.6257934570311,851.5638427734375,281.2504272460937
848.8098754882812,850.454833984375,-515.6257934570311,851.5638427734375,281.2504272460937
838.9400024414062,847.1648559570312,-523.4382934570311,847.6575927734375,281.2504272460937
838.9400024414062,847.1648559570312,-515.6257934570311,851.5638427734375,285.1567077636719
824.1351318359375,847.1648559570312,-515.6257934570311,851.5638427734375,285.1567077636719
843.8749389648438,868.5496215820312,-488.2820129394531,855.4700927734375,292.9692077636719
837.2949829101562,866.9046630859375,-488.2820129394531,855.4700927734375,292.9692077636719
773.1407470703125,899.8042602539062,-503.90704345703125,851.5638427734375,281.2504272460937
783.0106201171875,903.09423828125,-503.90704345703125,851.5638427734375,281.2504272460937
778.07568359375,896.5142822265625,-503.90704345703125,851.5638427734375,281.2504272460937
819.2001953125,860.32470703125,-503.90704345703125,847.6575927734375,292.9692077636719
819.2001953125,861.9697265625,-503.90704345703125,847.6575927734375,292.9692077636719
822.4901733398438,857.0347290039062,-503.90704345703125,847.6575927734375,292.9692077636719
850.454833984375,855.3897705078125,-492.1882629394531,839.8450927734375,320.31298828125
858.6797485351562,857.0347290039062,-500.00079345703125,843.7513427734375,328.1255187988281
832.3600463867188,850.454833984375,-500.00079345703125,859.3763427734375,335.9380187988281
832.3600463867188,850.454833984375,-472.656982421875,863.2825927734375,347.65679931640625
848.8098754882812,850.454833984375,-460.938232421875,867.1888427734375,351.56304931640625
848.8098754882812,850.454833984375,-460.938232421875,871.0950927734375,355.46929931640625
853.7448120117188,858.6797485351562,-472.656982421875,855.4700927734375,351.56304931640625
866.9046630859375,863.6146850585938,-476.563232421875,863.2825927734375,347.65679931640625
838.9400024414062,857.0347290039062,-468.750732421875,855.4700927734375,339.8442687988281
847.1648559570312,860.32470703125,-468.750732421875,855.4700927734375,339.8442687988281
838.9400024414062,858.6797485351562,-468.750732421875,855.4700927734375,339.8442687988281
842.2299194335938,848.8098754882812,-460.938232421875,859.3763427734375,355.46929931640625
847.1648559570312,850.454833984375,-468.750732421875,855.4700927734375,351.56304931640625
837.2949829101562,848.8098754882812,-468.750732421875,855.4700927734375,343.75054931640625
850.454833984375,848.8098754882812,-464.844482421875,859.3763427734375,343.75054931640625
840.5849609375,848.8098754882812,-464.844482421875,859.3763427734375,343.75054931640625
824.1351318359375,870.194580078125,-464.844482421875,863.2825927734375,339.8442687988281
802.7504272460938,868.5496215820312,-464.844482421875,863.2825927734375,339.8442687988281
812.6203002929688,855.3897705078125,-464.844482421875,859.3763427734375,339.8442687988281
830.715087890625,848.8098754882812,-464.844482421875,855.4700927734375,339.8442687988281
853.7448120117188,848.8098754882812,-472.656982421875,859.3763427734375,339.8442687988281
847.1648559570312,852.0997924804688,-472.656982421875,859.3763427734375,339.8442687988281
852.0997924804688,863.6146850585938,-468.750732421875,867.1888427734375,339.8442687988281
845.5198974609375,876.7745361328125,-464.844482421875,859.3763427734375,347.65679931640625
845.5198974609375,876.7745361328125,-460.938232421875,863.2825927734375,339.8442687988281
884.9994506835938,860.32470703125,-460.938232421875,863.2825927734375,339.8442687988281
884.9994506835938,860.32470703125,-472.656982421875,859.3763427734375,332.0317687988281
824.1351318359375,847.1648559570312,-472.656982421875,859.3763427734375,332.0317687988281
832.3600463867188,838.9400024414062,-460.938232421875,855.4700927734375,335.9380187988281
825.7801513671875,845.5198974609375,-472.656982421875,859.3763427734375,339.8442687988281
843.8749389648438,865.2596435546875,-472.656982421875,855.4700927734375,339.8442687988281
843.8749389648438,865.2596435546875,-460.938232421875,867.1888427734375,343.75054931640625
827.4251098632812,857.0347290039062,-460.938232421875,867.1888427734375,343.75054931640625
845.5198974609375,871.839599609375,-460.938232421875,867.1888427734375,339.8442687988281
843.8749389648438,861.9697265625,-460.938232421875,859.3763427734375,332.0317687988281
857.0347290039062,861.9697265625,-468.750732421875,859.3763427734375,328.1255187988281
868.5496215820312,860.32470703125,-464.844482421875,859.3763427734375,335.9380187988281
835.6500244140625,855.3897705078125,-464.844482421875,859.3763427734375,335.9380187988281
853.7448120117188,857.0347290039062,-468.750732421875,855.4700927734375,335.9380187988281
863.6146850585938,855.3897705078125,-468.750732421875,855.4700927734375,335.9380187988281
824.1351318359375,855.3897705078125,-464.844482421875,863.2825927734375,339.8442687988281
824.1351318359375,855.3897705078125,-468.750732421875,855.4700927734375,335.9380187988281
850.454833984375,855.3897705078125,-468.750732421875,855.4700927734375,335.9380187988281
840.5849609375,855.3897705078125,-468.750732421875,855.4700927734375,335.9380187988281
829.070068359375,843.8749389648438,-468.750732421875,859.3763427734375,335.9380187988281
825.7801513671875,840.5849609375,-472.656982421875,859.3763427734375,335.9380187988281
817.5552368164062,843.8749389648438,-472.656982421875,859.3763427734375,335.9380187988281
829.070068359375,848.8098754882812,-460.938232421875,859.3763427734375,335.9380187988281
834.0050048828125,848.8098754882812,-460.938232421875,859.3763427734375,335.9380187988281
834.0050048828125,853.7448120117188,-472.656982421875,859.3763427734375,335.9380187988281
850.454833984375,860.32470703125,-472.656982421875,859.3763427734375,335.9380187988281
857.0347290039062,858.6797485351562,-464.844482421875,859.3763427734375,335.9380187988281
843.8749389648438,858.6797485351562,-464.844482421875,859.3763427734375,335.9380187988281
868.5496215820312,858.6797485351562,-468.750732421875,855.4700927734375,339.8442687988281
868.5496215820312,858.6797485351562,-468.750732421875,859.3763427734375,339.8442687988281
838.9400024414062,853.7448120117188,-468.750732421875,859.3763427734375,339.8442687988281
847.1648559570312,850.454833984375,-468.750732421875,859.3763427734375,335.9380187988281
857.0347290039062,850.454833984375,-464.844482421875,855.4700927734375,339.8442687988281
857.0347290039062,850.454833984375,-460.938232421875,859.3763427734375,335.9380187988281
817.5552368164062,842.2299194335938,-468.750732421875,855.4700927734375,335.9380187988281
815.9102783203125,842.2299194335938,-468.750732421875,859.3763427734375,339.8442687988281
866.9046630859375,863.6146850585938,-468.750732421875,859.3763427734375,339.8442687988281
866.9046630859375,863.6146850585938,-468.750732421875,859.3763427734375,335.9380187988281
866.9046630859375,863.6146850585938,-468.750732421875,855.4700927734375,332.0317687988281
850.454833984375,857.0347290039062,-468.750732421875,855.4700927734375,332.0317687988281
853.7448120117188,852.0997924804688,-464.844482421875,859.3763427734375,335.9380187988281
837.2949829101562,857.0347290039062,-464.844482421875,859.3763427734375,335.9380187988281
845.5198974609375,863.6146850585938,-468.750732421875,859.3763427734375,335.9380187988281
845.5198974609375,863.6146850585938,-476.563232421875,859.3763427734375,332.0317687988281
860.32470703125,861.9697265625,-476.563232421875,859.3763427734375,332.0317687988281
840.5849609375,853.7448120117188,-460.938232421875,859.3763427734375,339.8442687988281
840.5849609375,853.7448120117188,-464.844482421875,863.2825927734375,339.8442687988281
840.5849609375,853.7448120117188,-464.844482421875,859.3763427734375,339.8442687988281
837.2949829101562,857.0347290039062,-464.844482421875,859.3763427734375,339.8442687988281
843.8749389648438,855.3897705078125,-464.844482421875,859.3763427734375,339.8442687988281
824.1351318359375,842.2299194335938,-472.656982421875,855.4700927734375,339.8442687988281
810.9752807617188,855.3897705078125,-472.656982421875,855.4700927734375,339.8442687988281
838.9400024414062,852.0997924804688,-464.844482421875,859.3763427734375,339.8442687988281
834.0050048828125,843.8749389648438,-464.844482421875,859.3763427734375,339.8442687988281
852.0997924804688,847.1648559570312,-472.656982421875,859.3763427734375,339.8442687988281
866.9046630859375,840.5849609375,-511.71954345703125,839.8450927734375,339.8442687988281
870.194580078125,830.715087890625,-511.71954345703125,839.8450927734375,339.8442687988281
871.839599609375,817.5552368164062,-511.71954345703125,839.8450927734375,339.8442687988281
845.5198974609375,830.715087890625,-511.71954345703125,855.4700927734375,328.1255187988281
850.454833984375,837.2949829101562,-511.71954345703125,855.4700927734375,328.1255187988281
848.8098754882812,842.2299194335938,-500.00079345703125,855.4700927734375,316.40673828125
848.8098754882812,842.2299194335938,-503.90704345703125,867.1888427734375,300.7817077636719
848.8098754882812,842.2299194335938,-492.1882629394531,863.2825927734375,289.0629577636719
837.2949829101562,837.2949829101562,-492.1882629394531,863.2825927734375,289.0629577636719
847.1648559570312,848.8098754882812,-492.1882629394531,863.2825927734375,289.0629577636719
830.715087890625,853.7448120117188,-480.4695129394531,867.1888427734375,246.09413146972656
815.9102783203125,861.9697265625,-480.4695129394531,867.1888427734375,246.09413146972656
817.5552368164062,853.7448120117188,-488.2820129394531,859.3763427734375,230.4691162109375
843.8749389648438,858.6797485351562,-492.1882629394531,863.2825927734375,222.65660095214844
847.1648559570312,860.32470703125,-507.81329345703125,855.4700927734375,210.93783569335938
834.0050048828125,857.0347290039062,-507.81329345703125,855.4700927734375,210.93783569335938
850.454833984375,860.32470703125,-511.71954345703125,871.0950927734375,222.65660095214844
843.8749389648438,858.6797485351562,-511.71954345703125,871.0950927734375,222.65660095214844
865.2596435546875,855.3897705078125,-531.2508544921875,859.3763427734375,234.3753662109375
837.2949829101562,852.0997924804688,-519.5320434570311,863.2825927734375,238.2816162109375
853.7448120117188,852.0997924804688,-531.2508544921875,859.3763427734375,230.4691162109375
858.6797485351562,852.0997924804688,-531.2508544921875,859.3763427734375,246.09413146972656
842.2299194335938,857.0347290039062,-531.2508544921875,859.3763427734375,246.09413146972656
822.4901733398438,840.5849609375,-535.1571044921875,859.3763427734375,242.18788146972656
850.454833984375,843.8749389648438,-523.4382934570311,855.4700927734375,246.09413146972656
850.454833984375,843.8749389648438,-527.3446044921875,859.3763427734375,250.0003967285156
850.454833984375,850.454833984375,-527.3446044921875,859.3763427734375,250.0003967285156
855.3897705078125,855.3897705078125,-515.6257934570311,867.1888427734375,257.81289672851557
850.454833984375,852.0997924804688,-515.6257934570311,867.1888427734375,257.81289672851557
842.2299194335938,863.6146850585938,-515.6257934570311,867.1888427734375,257.81289672851557
847.1648559570312,855.3897705078125,-539.0633544921875,851.5638427734375,253.9066467285156
835.6500244140625,855.3897705078125,-539.0633544921875,851.5638427734375,253.9066467285156
863.6146850585938,852.0997924804688,-527.3446044921875,855.4700927734375,253.9066467285156
863.6146850585938,852.0997924804688,-523.4382934570311,847.6575927734375,253.9066467285156
866.9046630859375,852.0997924804688,-523.4382934570311,847.6575927734375,253.9066467285156
852.0997924804688,857.0347290039062,-523.4382934570311,847.6575927734375,253.9066467285156
857.0347290039062,852.0997924804688,-527.3446044921875,855.4700927734375,261.71914672851557
863.6146850585938,852.0997924804688,-527.3446044921875,855.4700927734375,261.71914672851557
850.454833984375,852.0997924804688,-515.6257934570311,843.7513427734375,265.6254272460937
850.454833984375,852.0997924804688,-523.4382934570311,886.7201538085938,269.5316772460937
843.8749389648438,850.454833984375,-523.4382934570311,886.7201538085938,269.5316772460937
848.8098754882812,857.0347290039062,-531.2508544921875,855.4700927734375,242.18788146972656
848.8098754882812,857.0347290039062,-519.5320434570311,839.8450927734375,250.0003967285156
835.6500244140625,845.5198974609375,-523.4382934570311,859.3763427734375,261.71914672851557
835.6500244140625,845.5198974609375,-535.1571044921875,847.6575927734375,265.6254272460937
843.8749389648438,853.7448120117188,-535.1571044921875,847.6575927734375,265.6254272460937
866.9046630859375,832.3600463867188,-535.1571044921875,847.6575927734375,265.6254272460937
863.6146850585938,837.2949829101562,-531.2508544921875,851.5638427734375,253.9066467285156
868.5496215820312,845.5198974609375,-531.2508544921875,851.5638427734375,253.9066467285156
824.1351318359375,843.8749389648438,-539.0633544921875,851.5638427734375,253.9066467285156
824.1351318359375,843.8749389648438,-531.2508544921875,851.5638427734375,253.9066467285156
835.6500244140625,845.5198974609375,-531.2508544921875,851.5638427734375,253.9066467285156
863.6146850585938,850.454833984375,-515.6257934570311,855.4700927734375,253.9066467285156
866.9046630859375,852.0997924804688,-523.4382934570311,859.3763427734375,253.9066467285156
850.454833984375,850.454833984375,-527.3446044921875,859.3763427734375,257.81289672851557
865.2596435546875,847.1648559570312,-527.3446044921875,859.3763427734375,257.81289672851557
837.2949829101562,840.5849609375,-527.3446044921875,859.3763427734375,257.81289672851557
837.2949829101562,840.5849609375,-515.6257934570311,851.5638427734375,257.81289672851557
829.070068359375,838.9400024414062,-503.90704345703125,859.3763427734375,265.6254272460937
847.1648559570312,848.8098754882812,-503.90704345703125,859.3763427734375,265.6254272460937
792.8805541992188,876.7745361328125,-492.1882629394531,859.3763427734375,261.71914672851557
769.850830078125,888.2893676757812,-496.0945129394531,855.4700927734375,250.0003967285156
769.850830078125,888.2893676757812,-519.5320434570311,851.5638427734375,250.0003967285156
789.590576171875,893.2243041992188,-519.5320434570311,851.5638427734375,250.0003967285156
799.46044921875,870.194580078125,-519.5320434570311,851.5638427734375,277.3441772460937
842.2299194335938,865.2596435546875,-519.5320434570311,851.5638427734375,277.3441772460937
852.0997924804688,847.1648559570312,-515.6257934570311,843.7513427734375,296.8754577636719
834.0050048828125,852.0997924804688,-503.90704345703125,863.2825927734375,312.50048828125
834.0050048828125,852.0997924804688,-503.90704345703125,859.3763427734375,308.59423828125
858.6797485351562,852.0997924804688,-500.00079345703125,855.4700927734375,308.59423828125
843.8749389648438,842.2299194335938,-500.00079345703125,855.4700927734375,308.59423828125
843.8749389648438,842.2299194335938,-496.0945129394531,855.4700927734375,324.2192687988281
873.4845581054688,847.1648559570312,-500.00079345703125,851.5638427734375,324.2192687988281
853.7448120117188,843.8749389648438,-480.4695129394531,859.3763427734375,328.1255187988281
853.7448120117188,843.8749389648438,-480.4695129394531,855.4700927734375,328.1255187988281
853.7448120117188,843.8749389648438,-492.1882629394531,871.0950927734375,328.1255187988281
829.070068359375,847.1648559570312,-492.1882629394531,871.0950927734375,328.1255187988281
853.7448120117188,850.454833984375,-492.1882629394531,871.0950927734375,328.1255187988281
880.064453125,850.454833984375,-488.2820129394531,847.6575927734375,324.2192687988281
832.3600463867188,847.1648559570312,-488.2820129394531,847.6575927734375,324.2192687988281
835.6500244140625,848.8098754882812,-480.4695129394531,855.4700927734375,339.8442687988281
853.7448120117188,853.7448120117188,-476.563232421875,847.6575927734375,351.56304931640625
860.32470703125,850.454833984375,-492.1882629394531,863.2825927734375,328.1255187988281
835.6500244140625,850.454833984375,-457.0319519042969,828.1262817382812,343.75054931640625
832.3600463867188,848.8098754882812,-453.1257019042969,832.0325317382812,359.37554931640625
861.9697265625,848.8098754882812,-453.1257019042969,832.0325317382812,359.37554931640625
845.5198974609375,847.1648559570312,-488.2820129394531,835.9387817382812,359.37554931640625
858.6797485351562,843.8749389648438,-488.2820129394531,835.9387817382812,359.37554931640625
858.6797485351562,843.8749389648438,-523.4382934570311,859.3763427734375,332.0317687988281
858.6797485351562,838.9400024414062,-523.4382934570311,859.3763427734375,332.0317687988281
853.7448120117188,883.3544311523438,-496.0945129394531,878.9076538085938,300.7817077636719
855.3897705078125,876.7745361328125,-496.0945129394531,878.9076538085938,300.7817077636719
815.9102783203125,878.4194946289062,-523.4382934570311,804.6887817382812,296.8754577636719
832.3600463867188,848.8098754882812,-480.4695129394531,855.4700927734375,316.40673828125
834.0050048828125,853.7448120117188,-492.1882629394531,871.0950927734375,316.40673828125
853.7448120117188,845.5198974609375,-535.1571044921875,824.2200317382812,324.2192687988281
860.32470703125,852.0997924804688,-550.7821044921875,843.7513427734375,304.68798828125
843.8749389648438,853.7448120117188,-519.5320434570311,832.0325317382812,304.68798828125
871.839599609375,868.5496215820312,-519.5320434570311,855.4700927734375,285.1567077636719
871.839599609375,868.5496215820312,-531.2508544921875,847.6575927734375,285.1567077636719
853.7448120117188,865.2596435546875,-531.2508544921875,847.6575927734375,285.1567077636719
876.7745361328125,868.5496215820312,-531.2508544921875,847.6575927734375,285.1567077636719
858.6797485351562,866.9046630859375,-531.2508544921875,843.7513427734375,296.8754577636719
847.1648559570312,860.32470703125,-523.4382934570311,855.4700927734375,289.0629577636719
835.6500244140625,855.3897705078125,-523.4382934570311,847.6575927734375,289.0629577636719
852.0997924804688,858.6797485351562,-527.3446044921875,832.0325317382812,289.0629577636719
845.5198974609375,858.6797485351562,-531.2508544921875,851.5638427734375,292.9692077636719
855.3897705078125,860.32470703125,-519.5320434570311,832.0325317382812,289.0629577636719
858.6797485351562,855.3897705078125,-531.2508544921875,847.6575927734375,285.1567077636719
858.6797485351562,855.3897705078125,-527.3446044921875,843.7513427734375,285.1567077636719
837.2949829101562,848.8098754882812,-527.3446044921875,843.7513427734375,285.1567077636719
842.2299194335938,853.7448120117188,-527.3446044921875,843.7513427734375,285.1567077636719
842.2299194335938,853.7448120117188,-523.4382934570311,847.6575927734375,292.9692077636719
866.9046630859375,853.7448120117188,-523.4382934570311,847.6575927734375,292.9692077636719
832.3600463867188,853.7448120117188,-523.4382934570311,839.8450927734375,285.1567077636719
847.1648559570312,858.6797485351562,-519.5320434570311,855.4700927734375,289.0629577636719
835.6500244140625,860.32470703125,-519.5320434570311,847.6575927734375,285.1567077636719
827.4251098632812,847.1648559570312,-535.1571044921875,839.8450927734375,292.9692077636719
827.4251098632812,847.1648559570312,-539.0633544921875,847.6575927734375,296.8754577636719
861.9697265625,852.0997924804688,-539.0633544921875,847.6575927734375,296.8754577636719
824.1351318359375,835.6500244140625,-496.0945129394531,859.3763427734375,300.7817077636719
824.1351318359375,835.6500244140625,-503.90704345703125,843.7513427734375,292.9692077636719
829.070068359375,838.9400024414062,-515.6257934570311,847.6575927734375,292.9692077636719
845.5198974609375,837.2949829101562,-515.6257934570311,847.6575927734375,292.9692077636719
860.32470703125,845.5198974609375,-531.2508544921875,839.8450927734375,289.0629577636719
838.9400024414062,845.5198974609375,-531.2508544921875,839.8450927734375,289.0629577636719
840.5849609375,847.1648559570312,-531.2508544921875,839.8450927734375,289.0629577636719
840.5849609375,847.1648559570312,-507.81329345703125,882.8139038085938,281.2504272460937
815.9102783203125,848.8098754882812,-500.00079345703125,863.2825927734375,292.9692077636719
855.3897705078125,855.3897705078125,-500.00079345703125,863.2825927734375,292.9692077636719
822.4901733398438,847.1648559570312,-515.6257934570311,843.7513427734375,296.8754577636719
827.4251098632812,845.5198974609375,-515.6257934570311,843.7513427734375,296.8754577636719
857.0347290039062,858.6797485351562,-539.0633544921875,839.8450927734375,296.8754577636719
857.0347290039062,858.6797485351562,-519.5320434570311,855.4700927734375,300.7817077636719
842.2299194335938,853.7448120117188,-519.5320434570311,855.4700927734375,300.7817077636719
830.715087890625,852.0997924804688,-519.5320434570311,855.4700927734375,300.7817077636719
830.715087890625,858.6797485351562,-507.81329345703125,851.5638427734375,289.0629577636719
822.4901733398438,857.0347290039062,-507.81329345703125,851.5638427734375,289.0629577636719
866.9046630859375,850.454833984375,-515.6257934570311,851.5638427734375,277.3441772460937
830.715087890625,857.0347290039062,-507.81329345703125,847.6575927734375,281.2504272460937
830.715087890625,857.0347290039062,-503.90704345703125,855.4700927734375,285.1567077636719
834.0050048828125,850.454833984375,-507.81329345703125,855.4700927734375,285.1567077636719
837.2949829101562,852.0997924804688,-519.5320434570311,855.4700927734375,277.3441772460937
908.0291748046876,860.32470703125,-511.71954345703125,851.5638427734375,289.0629577636719
750.1110229492188,842.2299194335938,-511.71954345703125,851.5638427734375,289.0629577636719
750.1110229492188,842.2299194335938,-523.4382934570311,855.4700927734375,277.3441772460937
750.1110229492188,837.2949829101562,-507.81329345703125,847.6575927734375,300.7817077636719
750.1110229492188,834.0050048828125,-515.6257934570311,855.4700927734375,292.9692077636719
750.1110229492188,830.715087890625,-511.71954345703125,851.5638427734375,289.0629577636719
748.466064453125,822.4901733398438,-515.6257934570311,847.6575927734375,289.0629577636719
748.466064453125,819.2001953125,-515.6257934570311,847.6575927734375,289.0629577636719
748.466064453125,832.3600463867188,-511.71954345703125,847.6575927734375,289.0629577636719
801.1054077148438,832.3600463867188,-507.81329345703125,843.7513427734375,292.9692077636719
853.7448120117188,840.5849609375,-523.4382934570311,847.6575927734375,292.9692077636719
801.1054077148438,832.3600463867188,-523.4382934570311,847.6575927734375,292.9692077636719
906.3841552734376,863.6146850585938,-519.5320434570311,847.6575927734375,292.9692077636719
906.3841552734376,863.6146850585938,-515.6257934570311,855.4700927734375,292.9692077636719
853.7448120117188,857.0347290039062,-515.6257934570311,855.4700927734375,292.9692077636719
906.3841552734376,853.7448120117188,-515.6257934570311,851.5638427734375,292.9692077636719
853.7448120117188,855.3897705078125,-511.71954345703125,843.7513427734375,289.0629577636719
748.466064453125,827.4251098632812,-515.6257934570311,851.5638427734375,289.0629577636719
748.466064453125,827.4251098632812,-507.81329345703125,851.5638427734375,292.9692077636719
853.7448120117188,830.715087890625,-507.81329345703125,851.5638427734375,292.9692077636719
829.070068359375,834.0050048828125,-527.3446044921875,843.7513427734375,296.8754577636719
850.454833984375,852.0997924804688,-550.7821044921875,847.6575927734375,222.65660095214844
850.454833984375,852.0997924804688,-542.9696044921875,851.5638427734375,214.84408569335938
847.1648559570312,850.454833984375,-539.0633544921875,867.1888427734375,214.84408569335938
850.454833984375,850.454833984375,-539.0633544921875,867.1888427734375,214.84408569335938
830.715087890625,852.0997924804688,-539.0633544921875,867.1888427734375,214.84408569335938
855.3897705078125,838.9400024414062,-550.7821044921875,847.6575927734375,195.31280517578125
870.194580078125,837.2949829101562,-554.6883544921875,847.6575927734375,195.31280517578125
870.194580078125,837.2949829101562,-542.9696044921875,835.9387817382812,210.93783569335938
840.5849609375,842.2299194335938,-542.9696044921875,835.9387817382812,210.93783569335938
840.5849609375,842.2299194335938,-539.0633544921875,835.9387817382812,199.21905517578125
822.4901733398438,848.8098754882812,-531.2508544921875,835.9387817382812,199.21905517578125
835.6500244140625,843.8749389648438,-535.1571044921875,875.0013427734375,187.5002899169922
845.5198974609375,845.5198974609375,-542.9696044921875,878.9076538085938,179.68777465820312
850.454833984375,848.8098754882812,-550.7821044921875,863.2825927734375,171.87527465820312
825.7801513671875,863.6146850585938,-550.7821044921875,863.2825927734375,171.87527465820312
837.2949829101562,863.6146850585938,-550.7821044921875,863.2825927734375,171.87527465820312
842.2299194335938,853.7448120117188,-542.9696044921875,867.1888427734375,164.06275939941406
848.8098754882812,850.454833984375,-542.9696044921875,867.1888427734375,171.87527465820312
866.9046630859375,852.0997924804688,-542.9696044921875,867.1888427734375,171.87527465820312
861.9697265625,853.7448120117188,-542.9696044921875,871.0950927734375,179.68777465820312
863.6146850585938,852.0997924804688,-550.7821044921875,867.1888427734375,171.87527465820312
863.6146850585938,852.0997924804688,-539.0633544921875,855.4700927734375,175.78152465820312
850.454833984375,852.0997924804688,-539.0633544921875,855.4700927734375,175.78152465820312
858.6797485351562,847.1648559570312,-535.1571044921875,867.1888427734375,167.96900939941406
847.1648559570312,847.1648559570312,-546.8758544921875,871.0950927734375,171.87527465820312
829.070068359375,847.1648559570312,-546.8758544921875,871.0950927734375,171.87527465820312
858.6797485351562,848.8098754882812,-531.2508544921875,867.1888427734375,175.78152465820312
832.3600463867188,850.454833984375,-542.9696044921875,867.1888427734375,175.78152465820312
848.8098754882812,847.1648559570312,-539.0633544921875,863.2825927734375,179.68777465820312
837.2949829101562,850.454833984375,-539.0633544921875,863.2825927734375,179.68777465820312
855.3897705078125,847.1648559570312,-539.0633544921875,863.2825927734375,179.68777465820312
835.6500244140625,847.1648559570312,-539.0633544921875,863.2825927734375,179.68777465820312
835.6500244140625,847.1648559570312,-542.9696044921875,859.3763427734375,183.5940399169922
837.2949829101562,850.454833984375,-542.9696044921875,859.3763427734375,183.5940399169922
843.8749389648438,850.454833984375,-542.9696044921875,859.3763427734375,179.68777465820312
843.8749389648438,850.454833984375,-535.1571044921875,871.0950927734375,183.5940399169922
843.8749389648438,850.454833984375,-527.3446044921875,871.0950927734375,183.5940399169922
847.1648559570312,850.454833984375,-527.3446044921875,871.0950927734375,183.5940399169922
843.8749389648438,848.8098754882812,-527.3446044921875,871.0950927734375,183.5940399169922
850.454833984375,838.9400024414062,-519.5320434570311,867.1888427734375,195.31280517578125
843.8749389648438,834.0050048828125,-519.5320434570311,867.1888427734375,195.31280517578125
850.454833984375,848.8098754882812,-527.3446044921875,859.3763427734375,195.31280517578125
850.454833984375,848.8098754882812,-550.7821044921875,843.7513427734375,191.40655517578125
848.8098754882812,838.9400024414062,-566.4071655273438,855.4700927734375,187.5002899169922
848.8098754882812,838.9400024414062,-562.5008544921875,875.0013427734375,183.5940399169922
858.6797485351562,840.5849609375,-535.1571044921875,855.4700927734375,191.40655517578125
835.6500244140625,850.454833984375,-519.5320434570311,859.3763427734375,187.5002899169922
840.5849609375,855.3897705078125,-519.5320434570311,859.3763427734375,187.5002899169922
834.0050048828125,840.5849609375,-562.5008544921875,824.2200317382812,218.75033569335938
850.454833984375,838.9400024414062,-550.7821044921875,843.7513427734375,230.4691162109375
855.3897705078125,845.5198974609375,-554.6883544921875,855.4700927734375,210.93783569335938
848.8098754882812,842.2299194335938,-546.8758544921875,851.5638427734375,218.75033569335938
848.8098754882812,842.2299194335938,-546.8758544921875,851.5638427734375,214.84408569335938
863.6146850585938,838.9400024414062,-546.8758544921875,851.5638427734375,214.84408569335938
863.6146850585938,845.5198974609375,-566.4071655273438,832.0325317382812,210.93783569335938
863.6146850585938,845.5198974609375,-574.2196655273438,847.6575927734375,210.93783569335938
857.0347290039062,853.7448120117188,-539.0633544921875,851.5638427734375,218.75033569335938
842.2299194335938,855.3897705078125,-566.4071655273438,832.0325317382812,214.84408569335938
848.8098754882812,855.3897705078125,-566.4071655273438,832.0325317382812,214.84408569335938
843.8749389648438,850.454833984375,-566.4071655273438,832.0325317382812,214.84408569335938
843.8749389648438,850.454833984375,-554.6883544921875,855.4700927734375,218.75033569335938
842.2299194335938,845.5198974609375,-546.8758544921875,851.5638427734375,214.84408569335938
842.2299194335938,848.8098754882812,-546.8758544921875,847.6575927734375,214.84408569335938
855.3897705078125,848.8098754882812,-546.8758544921875,847.6575927734375,214.84408569335938
852.0997924804688,848.8098754882812,-550.7821044921875,855.4700927734375,218.75033569335938
852.0997924804688,848.8098754882812,-546.8758544921875,851.5638427734375,214.84408569335938
835.6500244140625,848.8098754882812,-546.8758544921875,851.5638427734375,214.84408569335938
825.7801513671875,847.1648559570312,-550.7821044921875,855.4700927734375,218.75033569335938
852.0997924804688,850.454833984375,-566.4071655273438,847.6575927734375,207.0315704345703
840.5849609375,850.454833984375,-546.8758544921875,847.6575927734375,210.93783569335938
845.5198974609375,832.3600463867188,-542.9696044921875,851.5638427734375,222.65660095214844
837.2949829101562,852.0997924804688,-566.4071655273438,839.8450927734375,207.0315704345703
853.7448120117188,848.8098754882812,-546.8758544921875,851.5638427734375,218.75033569335938
853.7448120117188,848.8098754882812,-539.0633544921875,855.4700927734375,214.84408569335938
837.2949829101562,855.3897705078125,-542.9696044921875,851.5638427734375,218.75033569335938
838.9400024414062,866.9046630859375,-546.8758544921875,855.4700927734375,210.93783569335938
847.1648559570312,861.9697265625,-550.7821044921875,859.3763427734375,214.84408569335938
847.1648559570312,861.9697265625,-546.8758544921875,859.3763427734375,210.93783569335938
850.454833984375,860.32470703125,-546.8758544921875,859.3763427734375,210.93783569335938
842.2299194335938,855.3897705078125,-546.8758544921875,847.6575927734375,222.65660095214844
835.6500244140625,852.0997924804688,-546.8758544921875,851.5638427734375,218.75033569335938
857.0347290039062,858.6797485351562,-550.7821044921875,847.6575927734375,226.56285095214844
845.5198974609375,853.7448120117188,-558.5946044921875,851.5638427734375,214.84408569335938
835.6500244140625,848.8098754882812,-558.5946044921875,851.5638427734375,214.84408569335938
843.8749389648438,850.454833984375,-554.6883544921875,855.4700927734375,210.93783569335938
827.4251098632812,860.32470703125,-539.0633544921875,839.8450927734375,222.65660095214844
827.4251098632812,853.7448120117188,-554.6883544921875,847.6575927734375,210.93783569335938
845.5198974609375,848.8098754882812,-554.6883544921875,847.6575927734375,210.93783569335938
845.5198974609375,848.8098754882812,-558.5946044921875,855.4700927734375,214.84408569335938
845.5198974609375,848.8098754882812,-558.5946044921875,851.5638427734375,210.93783569335938
840.5849609375,838.9400024414062,-539.0633544921875,855.4700927734375,210.93783569335938
855.3897705078125,850.454833984375,-539.0633544921875,855.4700927734375,210.93783569335938
843.8749389648438,852.0997924804688,-539.0633544921875,855.4700927734375,210.93783569335938
853.7448120117188,850.454833984375,-542.9696044921875,855.4700927734375,203.1253204345703
843.8749389648438,852.0997924804688,-554.6883544921875,855.4700927734375,195.31280517578125
838.9400024414062,847.1648559570312,-554.6883544921875,855.4700927734375,195.31280517578125
843.8749389648438,838.9400024414062,-527.3446044921875,843.7513427734375,214.84408569335938
838.9400024414062,843.8749389648438,-539.0633544921875,859.3763427734375,210.93783569335938
837.2949829101562,847.1648559570312,-546.8758544921875,859.3763427734375,199.21905517578125
830.715087890625,845.5198974609375,-546.8758544921875,859.3763427734375,199.21905517578125
837.2949829101562,843.8749389648438,-535.1571044921875,890.6264038085938,207.0315704345703
842.2299194335938,835.6500244140625,-542.9696044921875,839.8450927734375,191.40655517578125
848.8098754882812,834.0050048828125,-542.9696044921875,839.8450927734375,191.40655517578125
838.9400024414062,843.8749389648438,-542.9696044921875,839.8450927734375,191.40655517578125
837.2949829101562,837.2949829101562,-527.3446044921875,871.0950927734375,203.1253204345703
837.2949829101562,837.2949829101562,-523.4382934570311,871.0950927734375,207.0315704345703
829.070068359375,850.454833984375,-515.6257934570311,871.0950927734375,214.84408569335938
845.5198974609375,848.8098754882812,-539.0633544921875,851.5638427734375,207.0315704345703
842.2299194335938,847.1648559570312,-539.0633544921875,851.5638427734375,207.0315704345703
834.0050048828125,850.454833984375,-546.8758544921875,863.2825927734375,207.0315704345703
857.0347290039062,850.454833984375,-542.9696044921875,867.1888427734375,210.93783569335938
837.2949829101562,848.8098754882812,-519.5320434570311,875.0013427734375,222.65660095214844
834.0050048828125,845.5198974609375,-535.1571044921875,867.1888427734375,214.84408569335938
825.7801513671875,853.7448120117188,-484.3757629394531,871.0950927734375,238.2816162109375
789.590576171875,881.70947265625,-523.4382934570311,847.6575927734375,195.31280517578125
781.3656616210938,880.064453125,-519.5320434570311,855.4700927734375,238.2816162109375
820.84521484375,847.1648559570312,-511.71954345703125,863.2825927734375,273.4379272460937
820.84521484375,847.1648559570312,-515.6257934570311,867.1888427734375,269.5316772460937
830.715087890625,843.8749389648438,-515.6257934570311,867.1888427734375,269.5316772460937
838.9400024414062,842.2299194335938,-515.6257934570311,867.1888427734375,269.5316772460937
850.454833984375,842.2299194335938,-500.00079345703125,871.0950927734375,285.1567077636719
825.7801513671875,845.5198974609375,-500.00079345703125,871.0950927734375,285.1567077636719
837.2949829101562,842.2299194335938,-507.81329345703125,871.0950927734375,289.0629577636719
835.6500244140625,842.2299194335938,-507.81329345703125,871.0950927734375,289.0629577636719
832.3600463867188,842.2299194335938,-480.4695129394531,863.2825927734375,296.8754577636719
853.7448120117188,832.3600463867188,-480.4695129394531,882.8139038085938,277.3441772460937
840.5849609375,843.8749389648438,-472.656982421875,878.9076538085938,289.0629577636719
840.5849609375,850.454833984375,-472.656982421875,878.9076538085938,289.0629577636719
824.1351318359375,845.5198974609375,-503.90704345703125,871.0950927734375,265.6254272460937
848.8098754882812,824.1351318359375,-500.00079345703125,867.1888427734375,269.5316772460937
853.7448120117188,819.2001953125,-488.2820129394531,875.0013427734375,277.3441772460937
853.7448120117188,819.2001953125,-476.563232421875,875.0013427734375,277.3441772460937
853.7448120117188,820.84521484375,-476.563232421875,875.0013427734375,277.3441772460937
845.5198974609375,820.84521484375,-476.563232421875,875.0013427734375,277.3441772460937
863.6146850585938,807.6853637695312,-476.563232421875,875.0013427734375,277.3441772460937
876.7745361328125,797.8154907226562,-484.3757629394531,871.0950927734375,269.5316772460937
880.064453125,796.1704711914062,-484.3757629394531,878.9076538085938,261.71914672851557
866.9046630859375,812.6203002929688,-488.2820129394531,875.0013427734375,257.81289672851557
866.9046630859375,812.6203002929688,-496.0945129394531,871.0950927734375,250.0003967285156
840.5849609375,845.5198974609375,-496.0945129394531,871.0950927734375,250.0003967285156
838.9400024414062,855.3897705078125,-492.1882629394531,871.0950927734375,238.2816162109375
834.0050048828125,858.6797485351562,-496.0945129394531,875.0013427734375,230.4691162109375
840.5849609375,853.7448120117188,-500.00079345703125,867.1888427734375,234.3753662109375
810.9752807617188,880.064453125,-503.90704345703125,867.1888427734375,222.65660095214844
802.7504272460938,884.9994506835938,-503.90704345703125,867.1888427734375,222.65660095214844
809.330322265625,875.1295166015625,-503.90704345703125,878.9076538085938,230.4691162109375
809.330322265625,868.5496215820312,-496.0945129394531,871.0950927734375,238.2816162109375
809.330322265625,868.5496215820312,-527.3446044921875,867.1888427734375,230.4691162109375
824.1351318359375,866.9046630859375,-527.3446044921875,867.1888427734375,230.4691162109375
820.84521484375,860.32470703125,-527.3446044921875,867.1888427734375,230.4691162109375
834.0050048828125,848.8098754882812,-500.00079345703125,882.8139038085938,238.2816162109375
830.715087890625,850.454833984375,-500.00079345703125,882.8139038085938,238.2816162109375
830.715087890625,847.1648559570312,-488.2820129394531,878.9076538085938,246.09413146972656
830.715087890625,847.1648559570312,-503.90704345703125,878.9076538085938,238.2816162109375
824.1351318359375,853.7448120117188,-503.90704345703125,878.9076538085938,238.2816162109375
840.5849609375,852.0997924804688,-507.81329345703125,882.8139038085938,238.2816162109375
840.5849609375,852.0997924804688,-507.81329345703125,867.1888427734375,230.4691162109375
834.0050048828125,850.454833984375,-507.81329345703125,871.0950927734375,222.65660095214844
837.2949829101562,848.8098754882812,-507.81329345703125,871.0950927734375,222.65660095214844
845.5198974609375,850.454833984375,-484.3757629394531,886.7201538085938,238.2816162109375
843.8749389648438,848.8098754882812,-496.0945129394531,875.0013427734375,238.2816162109375
843.8749389648438,848.8098754882812,-503.90704345703125,871.0950927734375,238.2816162109375
838.9400024414062,845.5198974609375,-503.90704345703125,867.1888427734375,238.2816162109375
838.9400024414062,843.8749389648438,-500.00079345703125,871.0950927734375,238.2816162109375
838.9400024414062,843.8749389648438,-496.0945129394531,871.0950927734375,242.18788146972656
837.2949829101562,843.8749389648438,-496.0945129394531,871.0950927734375,242.18788146972656
843.8749389648438,845.5198974609375,-496.0945129394531,871.0950927734375,242.18788146972656
845.5198974609375,850.454833984375,-496.0945129394531,886.7201538085938,238.2816162109375
838.9400024414062,850.454833984375,-503.90704345703125,882.8139038085938,230.4691162109375
842.2299194335938,850.454833984375,-492.1882629394531,867.1888427734375,238.2816162109375
840.5849609375,853.7448120117188,-488.2820129394531,875.0013427734375,242.18788146972656
835.6500244140625,857.0347290039062,-496.0945129394531,875.0013427734375,230.4691162109375
840.5849609375,850.454833984375,-500.00079345703125,875.0013427734375,234.3753662109375
840.5849609375,852.0997924804688,-500.00079345703125,878.9076538085938,246.09413146972656
837.2949829101562,853.7448120117188,-500.00079345703125,878.9076538085938,246.09413146972656
837.2949829101562,853.7448120117188,-507.81329345703125,875.0013427734375,234.3753662109375
847.1648559570312,857.0347290039062,-507.81329345703125,886.7201538085938,234.3753662109375
830.715087890625,837.2949829101562,-519.5320434570311,878.9076538085938,222.65660095214844
837.2949829101562,848.8098754882812,-519.5320434570311,878.9076538085938,222.65660095214844
837.2949829101562,848.8098754882812,-515.6257934570311,875.0013427734375,214.84408569335938
845.5198974609375,866.9046630859375,-511.71954345703125,886.7201538085938,195.31280517578125
855.3897705078125,870.194580078125,-511.71954345703125,886.7201538085938,195.31280517578125
863.6146850585938,855.3897705078125,-511.71954345703125,886.7201538085938,195.31280517578125
852.0997924804688,845.5198974609375,-503.90704345703125,863.2825927734375,167.96900939941406
855.3897705078125,855.3897705078125,-519.5320434570311,882.8139038085938,164.06275939941406
848.8098754882812,855.3897705078125,-507.81329345703125,886.7201538085938,167.96900939941406
850.454833984375,852.0997924804688,-507.81329345703125,886.7201538085938,167.96900939941406
852.0997924804688,857.0347290039062,-503.90704345703125,882.8139038085938,175.78152465820312
861.9697265625,853.7448120117188,-507.81329345703125,882.8139038085938,175.78152465820312
842.2299194335938,852.0997924804688,-507.81329345703125,882.8139038085938,175.78152465820312
857.0347290039062,850.454833984375,-519.5320434570311,886.7201538085938,175.78152465820312
857.0347290039062,850.454833984375,-523.4382934570311,886.7201538085938,175.78152465820312
840.5849609375,857.0347290039062,-523.4382934570311,886.7201538085938,175.78152465820312
848.8098754882812,858.6797485351562,-519.5320434570311,878.9076538085938,183.5940399169922
850.454833984375,857.0347290039062,-511.71954345703125,886.7201538085938,183.5940399169922
853.7448120117188,857.0347290039062,-515.6257934570311,882.8139038085938,179.68777465820312
850.454833984375,847.1648559570312,-515.6257934570311,882.8139038085938,179.68777465820312
845.5198974609375,847.1648559570312,-519.5320434570311,886.7201538085938,167.96900939941406
842.2299194335938,852.0997924804688,-519.5320434570311,886.7201538085938,167.96900939941406
842.2299194335938,852.0997924804688,-503.90704345703125,878.9076538085938,191.40655517578125
853.7448120117188,840.5849609375,-503.90704345703125,878.9076538085938,191.40655517578125
845.5198974609375,852.0997924804688,-503.90704345703125,878.9076538085938,191.40655517578125
832.3600463867188,865.2596435546875,-515.6257934570311,875.0013427734375,191.40655517578125
835.6500244140625,865.2596435546875,-515.6257934570311,875.0013427734375,203.1253204345703
848.8098754882812,853.7448120117188,-519.5320434570311,875.0013427734375,191.40655517578125
847.1648559570312,855.3897705078125,-527.3446044921875,878.9076538085938,195.31280517578125
850.454833984375,852.0997924804688,-527.3446044921875,875.0013427734375,195.31280517578125
860.32470703125,845.5198974609375,-496.0945129394531,878.9076538085938,210.93783569335938
853.7448120117188,850.454833984375,-496.0945129394531,878.9076538085938,210.93783569335938
832.3600463867188,880.064453125,-523.4382934570311,867.1888427734375,195.31280517578125
815.9102783203125,883.3544311523438,-523.4382934570311,867.1888427734375,195.31280517578125
801.1054077148438,883.3544311523438,-523.4382934570311,867.1888427734375,195.31280517578125
827.4251098632812,860.32470703125,-496.0945129394531,878.9076538085938,226.56285095214844
834.0050048828125,848.8098754882812,-496.0945129394531,878.9076538085938,226.56285095214844
837.2949829101562,845.5198974609375,-519.5320434570311,867.1888427734375,207.0315704345703
835.6500244140625,840.5849609375,-519.5320434570311,871.0950927734375,222.65660095214844
835.6500244140625,840.5849609375,-511.71954345703125,875.0013427734375,230.4691162109375
838.9400024414062,845.5198974609375,-511.71954345703125,875.0013427734375,230.4691162109375
848.8098754882812,847.1648559570312,-511.71954345703125,875.0013427734375,230.4691162109375
834.0050048828125,842.2299194335938,-511.71954345703125,875.0013427734375,234.3753662109375
840.5849609375,845.5198974609375,-500.00079345703125,882.8139038085938,234.3753662109375
829.070068359375,845.5198974609375,-496.0945129394531,882.8139038085938,238.2816162109375
838.9400024414062,850.454833984375,-496.0945129394531,882.8139038085938,238.2816162109375
835.6500244140625,848.8098754882812,-500.00079345703125,875.0013427734375,242.18788146972656
838.9400024414062,845.5198974609375,-500.00079345703125,875.0013427734375,242.18788146972656
848.8098754882812,847.1648559570312,-496.0945129394531,875.0013427734375,234.3753662109375
840.5849609375,850.454833984375,-500.00079345703125,871.0950927734375,250.0003967285156
847.1648559570312,838.9400024414062,-500.00079345703125,871.0950927734375,250.0003967285156
857.0347290039062,842.2299194335938,-492.1882629394531,886.7201538085938,257.81289672851557
857.0347290039062,842.2299194335938,-488.2820129394531,882.8139038085938,265.6254272460937
857.0347290039062,842.2299194335938,-484.3757629394531,867.1888427734375,273.4379272460937
848.8098754882812,842.2299194335938,-484.3757629394531,867.1888427734375,273.4379272460937
840.5849609375,843.8749389648438,-484.3757629394531,867.1888427734375,273.4379272460937
835.6500244140625,837.2949829101562,-500.00079345703125,863.2825927734375,277.3441772460937
852.0997924804688,842.2299194335938,-476.563232421875,882.8139038085938,277.3441772460937
855.3897705078125,837.2949829101562,-476.563232421875,882.8139038085938,277.3441772460937
857.0347290039062,840.5849609375,-476.563232421875,882.8139038085938,277.3441772460937
843.8749389648438,852.0997924804688,-468.750732421875,855.4700927734375,289.0629577636719
843.8749389648438,852.0997924804688,-460.938232421875,855.4700927734375,285.1567077636719
857.0347290039062,850.454833984375,-488.2820129394531,875.0013427734375,261.71914672851557
842.2299194335938,843.8749389648438,-488.2820129394531,875.0013427734375,261.71914672851557
834.0050048828125,853.7448120117188,-488.2820129394531,878.9076538085938,289.0629577636719
835.6500244140625,871.839599609375,-484.3757629394531,859.3763427734375,292.9692077636719
852.0997924804688,847.1648559570312,-480.4695129394531,859.3763427734375,273.4379272460937
842.2299194335938,850.454833984375,-480.4695129394531,859.3763427734375,273.4379272460937
845.5198974609375,860.32470703125,-500.00079345703125,875.0013427734375,273.4379272460937
837.2949829101562,855.3897705078125,-500.00079345703125,859.3763427734375,277.3441772460937
850.454833984375,853.7448120117188,-488.2820129394531,878.9076538085938,269.5316772460937
840.5849609375,853.7448120117188,-500.00079345703125,859.3763427734375,273.4379272460937
840.5849609375,853.7448120117188,-503.90704345703125,863.2825927734375,277.3441772460937
837.2949829101562,845.5198974609375,-503.90704345703125,863.2825927734375,277.3441772460937
845.5198974609375,855.3897705078125,-496.0945129394531,875.0013427734375,265.6254272460937
842.2299194335938,852.0997924804688,-496.0945129394531,875.0013427734375,265.6254272460937
852.0997924804688,845.5198974609375,-476.563232421875,859.3763427734375,277.3441772460937
840.5849609375,845.5198974609375,-460.938232421875,882.8139038085938,281.2504272460937
835.6500244140625,840.5849609375,-460.938232421875,882.8139038085938,281.2504272460937
858.6797485351562,857.0347290039062,-472.656982421875,886.7201538085938,273.4379272460937
858.6797485351562,857.0347290039062,-503.90704345703125,843.7513427734375,277.3441772460937
857.0347290039062,848.8098754882812,-523.4382934570311,835.9387817382812,277.3441772460937
850.454833984375,855.3897705078125,-476.563232421875,875.0013427734375,277.3441772460937
843.8749389648438,850.454833984375,-464.844482421875,886.7201538085938,269.5316772460937
843.8749389648438,850.454833984375,-480.4695129394531,875.0013427734375,277.3441772460937
847.1648559570312,847.1648559570312,-500.00079345703125,878.9076538085938,273.4379272460937
845.5198974609375,853.7448120117188,-500.00079345703125,878.9076538085938,273.4379272460937
840.5849609375,853.7448120117188,-500.00079345703125,878.9076538085938,273.4379272460937
837.2949829101562,847.1648559570312,-476.563232421875,875.0013427734375,273.4379272460937
848.8098754882812,842.2299194335938,-476.563232421875,875.0013427734375,273.4379272460937
853.7448120117188,852.0997924804688,-476.563232421875,875.0013427734375,273.4379272460937
835.6500244140625,848.8098754882812,-492.1882629394531,871.0950927734375,277.3441772460937
837.2949829101562,848.8098754882812,-484.3757629394531,875.0013427734375,273.4379272460937
842.2299194335938,842.2299194335938,-480.4695129394531,871.0950927734375,277.3441772460937
842.2299194335938,842.2299194335938,-488.2820129394531,871.0950927734375,277.3441772460937
845.5198974609375,848.8098754882812,-488.2820129394531,871.0950927734375,277.3441772460937
845.5198974609375,842.2299194335938,-488.2820129394531,871.0950927734375,277.3441772460937
857.0347290039062,847.1648559570312,-492.1882629394531,859.3763427734375,289.0629577636719
