EEG1,EEG2,Acc_X,Acc_Y,Acc_Z
819.2001953125,858.6797485351562,-46.87507247924805,960.9390258789062,359.37554931640625
819.2001953125,853.7448120117188,-39.06256103515625,957.0327758789062,367.1880798339844
822.4901733398438,857.0347290039062,-42.96881866455078,953.12646484375,371.0943298339844
825.7801513671875,865.2596435546875,-42.96881866455078,953.12646484375,371.0943298339844
824.1351318359375,866.9046630859375,-54.687583923339844,957.0327758789062,367.1880798339844
829.070068359375,861.9697265625,-50.78133010864258,957.0327758789062,371.0943298339844
829.070068359375,866.9046630859375,-50.78133010864258,957.0327758789062,371.0943298339844
829.070068359375,866.9046630859375,-50.78133010864258,949.22021484375,375.0005798339844
829.070068359375,866.9046630859375,-46.87507247924805,953.12646484375,375.0005798339844
830.715087890625,853.7448120117188,-50.78133010864258,964.8452758789062,367.1880798339844
834.0050048828125,850.454833984375,-39.06256103515625,964.8452758789062,363.2818298339844
834.0050048828125,840.5849609375,-42.96881866455078,960.9390258789062,359.37554931640625
834.0050048828125,840.5849609375,-42.96881866455078,964.8452758789062,359.37554931640625
834.0050048828125,840.5849609375,-46.87507247924805,953.12646484375,359.37554931640625
835.6500244140625,847.1648559570312,-46.87507247924805,953.12646484375,359.37554931640625
835.6500244140625,832.3600463867188,-39.06256103515625,957.0327758789062,367.1880798339844
835.6500244140625,832.3600463867188,-50.78133010864258,960.9390258789062,363.2818298339844
830.715087890625,834.0050048828125,-50.78133010864258,960.9390258789062,363.2818298339844
830.715087890625,832.3600463867188,-39.06256103515625,960.9390258789062,371.0943298339844
830.715087890625,847.1648559570312,-39.06256103515625,957.0327758789062,371.0943298339844
827.4251098632812,858.6797485351562,-42.96881866455078,957.0327758789062,371.0943298339844
830.715087890625,861.9697265625,-50.78133010864258,953.12646484375,371.0943298339844
830.715087890625,861.9697265625,-54.687583923339844,957.0327758789062,367.1880798339844
830.715087890625,861.9697265625,-58.59384155273438,957.0327758789062,367.1880798339844
834.0050048828125,857.0347290039062,-58.59384155273438,957.0327758789062,367.1880798339844
837.2949829101562,852.0997924804688,-58.59384155273438,960.9390258789062,367.1880798339844
837.2949829101562,852.0997924804688,-58.59384155273438,960.9390258789062,363.2818298339844
843.8749389648438,840.5849609375,-58.59384155273438,957.0327758789062,363.2818298339844
843.8749389648438,840.5849609375,-58.59384155273438,953.12646484375,363.2818298339844
847.1648559570312,837.2949829101562,-54.687583923339844,960.9390258789062,367.1880798339844
847.1648559570312,825.7801513671875,-54.687583923339844,960.9390258789062,367.1880798339844
847.1648559570312,825.7801513671875,-50.78133010864258,957.0327758789062,367.1880798339844
847.1648559570312,825.7801513671875,-46.87507247924805,960.9390258789062,367.1880798339844
847.1648559570312,822.4901733398438,-66.40635681152344,964.8452758789062,351.56304931640625
852.0997924804688,820.84521484375,-54.687583923339844,953.12646484375,359.37554931640625
843.8749389648438,842.2299194335938,-50.78133010864258,957.0327758789062,359.37554931640625
845.5198974609375,840.5849609375,-50.78133010864258,960.9390258789062,355.46929931640625
845.5198974609375,840.5849609375,-58.59384155273438,960.9390258789062,347.65679931640625
850.454833984375,832.3600463867188,-58.59384155273438,960.9390258789062,347.65679931640625
842.2299194335938,838.9400024414062,-42.96881866455078,960.9390258789062,347.65679931640625
842.2299194335938,838.9400024414062,-39.06256103515625,968.7515258789062,347.65679931640625
847.1648559570312,835.6500244140625,-39.06256103515625,968.7515258789062,347.65679931640625
847.1648559570312,834.0050048828125,-42.96881866455078,964.8452758789062,339.8442687988281
825.7801513671875,847.1648559570312,-46.87507247924805,960.9390258789062,332.0317687988281
825.7801513671875,847.1648559570312,-42.96881866455078,960.9390258789062,335.9380187988281
825.7801513671875,847.1648559570312,-42.96881866455078,960.9390258789062,332.0317687988281
829.070068359375,842.2299194335938,-42.96881866455078,960.9390258789062,332.0317687988281
834.0050048828125,830.715087890625,-39.06256103515625,968.7515258789062,335.9380187988281
834.0050048828125,830.715087890625,-58.59384155273438,972.6577758789062,332.0317687988281
835.6500244140625,834.0050048828125,-58.59384155273438,972.6577758789062,332.0317687988281
845.5198974609375,829.070068359375,-42.96881866455078,960.9390258789062,339.8442687988281
845.5198974609375,829.070068359375,-42.96881866455078,972.6577758789062,339.8442687988281
847.1648559570312,820.84521484375,-42.96881866455078,972.6577758789062,339.8442687988281
848.8098754882812,817.5552368164062,-39.06256103515625,953.12646484375,347.65679931640625
848.8098754882812,817.5552368164062,-39.06256103515625,957.0327758789062,347.65679931640625
848.8098754882812,817.5552368164062,-50.78133010864258,960.9390258789062,347.65679931640625
858.6797485351562,817.5552368164062,-50.78133010864258,960.9390258789062,347.65679931640625
858.6797485351562,847.1648559570312,-54.687583923339844,964.8452758789062,347.65679931640625
860.32470703125,845.5198974609375,-50.78133010864258,968.7515258789062,355.46929931640625
860.32470703125,845.5198974609375,-54.687583923339844,964.8452758789062,351.56304931640625
858.6797485351562,845.5198974609375,-54.687583923339844,964.8452758789062,351.56304931640625
863.6146850585938,845.5198974609375,-54.687583923339844,960.9390258789062,347.65679931640625
863.6146850585938,845.5198974609375,-50.78133010864258,960.9390258789062,347.65679931640625
863.6146850585938,845.5198974609375,-54.687583923339844,964.8452758789062,347.65679931640625
858.6797485351562,848.8098754882812,-54.687583923339844,964.8452758789062,347.65679931640625
857.0347290039062,847.1648559570312,-50.78133010864258,964.8452758789062,347.65679931640625
852.0997924804688,857.0347290039062,-46.87507247924805,960.9390258789062,343.75054931640625
850.454833984375,850.454833984375,-42.96881866455078,957.0327758789062,339.8442687988281
850.454833984375,848.8098754882812,-42.96881866455078,957.0327758789062,339.8442687988281
852.0997924804688,848.8098754882812,-50.78133010864258,960.9390258789062,335.9380187988281
852.0997924804688,848.8098754882812,-54.687583923339844,968.7515258789062,335.9380187988281
852.0997924804688,861.9697265625,-54.687583923339844,968.7515258789062,335.9380187988281
855.3897705078125,863.6146850585938,-50.78133010864258,964.8452758789062,339.8442687988281
865.2596435546875,871.839599609375,-50.78133010864258,964.8452758789062,339.8442687988281
855.3897705078125,878.4194946289062,-54.687583923339844,964.8452758789062,335.9380187988281
855.3897705078125,878.4194946289062,-50.78133010864258,964.8452758789062,335.9380187988281
853.7448120117188,893.2243041992188,-46.87507247924805,964.8452758789062,335.9380187988281
850.454833984375,881.70947265625,-42.96881866455078,960.9390258789062,339.8442687988281
850.454833984375,881.70947265625,-50.78133010864258,968.7515258789062,332.0317687988281
850.454833984375,881.70947265625,-42.96881866455078,964.8452758789062,335.9380187988281
863.6146850585938,883.3544311523438,-42.96881866455078,964.8452758789062,328.1255187988281
870.194580078125,883.3544311523438,-42.96881866455078,968.7515258789062,332.0317687988281
868.5496215820312,871.839599609375,-39.06256103515625,964.8452758789062,332.0317687988281
870.194580078125,865.2596435546875,-46.87507247924805,968.7515258789062,332.0317687988281
860.32470703125,847.1648559570312,-39.06256103515625,968.7515258789062,332.0317687988281
871.839599609375,835.6500244140625,-42.96881866455078,972.6577758789062,332.0317687988281
871.839599609375,835.6500244140625,-50.78133010864258,968.7515258789062,328.1255187988281
863.6146850585938,835.6500244140625,-39.06256103515625,960.9390258789062,335.9380187988281
863.6146850585938,845.5198974609375,-42.96881866455078,964.8452758789062,328.1255187988281
863.6146850585938,845.5198974609375,-46.87507247924805,964.8452758789062,328.1255187988281
866.9046630859375,850.454833984375,-42.96881866455078,964.8452758789062,332.0317687988281
858.6797485351562,852.0997924804688,-39.06256103515625,968.7515258789062,332.0317687988281
853.7448120117188,855.3897705078125,-46.87507247924805,972.6577758789062,328.1255187988281
863.6146850585938,861.9697265625,-46.87507247924805,972.6577758789062,328.1255187988281
871.839599609375,875.1295166015625,-39.06256103515625,964.8452758789062,339.8442687988281
845.5198974609375,845.5198974609375,-42.96881866455078,964.8452758789062,332.0317687988281
863.6146850585938,865.2596435546875,-42.96881866455078,964.8452758789062,335.9380187988281
863.6146850585938,865.2596435546875,-39.06256103515625,964.8452758789062,339.8442687988281
865.2596435546875,866.9046630859375,-39.06256103515625,964.8452758789062,339.8442687988281
857.0347290039062,881.70947265625,-46.87507247924805,964.8452758789062,335.9380187988281
868.5496215820312,861.9697265625,-42.96881866455078,972.6577758789062,339.8442687988281
868.5496215820312,858.6797485351562,-42.96881866455078,960.9390258789062,343.75054931640625
868.5496215820312,848.8098754882812,-46.87507247924805,964.8452758789062,339.8442687988281
868.5496215820312,848.8098754882812,-46.87507247924805,964.8452758789062,343.75054931640625
870.194580078125,847.1648559570312,-46.87507247924805,964.8452758789062,343.75054931640625
868.5496215820312,860.32470703125,-42.96881866455078,964.8452758789062,347.65679931640625
868.5496215820312,860.32470703125,-42.96881866455078,968.7515258789062,343.75054931640625
868.5496215820312,860.32470703125,-50.78133010864258,968.7515258789062,343.75054931640625
871.839599609375,875.1295166015625,-50.78133010864258,964.8452758789062,339.8442687988281
868.5496215820312,875.1295166015625,-42.96881866455078,964.8452758789062,343.75054931640625
871.839599609375,842.2299194335938,-42.96881866455078,964.8452758789062,343.75054931640625
870.194580078125,834.0050048828125,-42.96881866455078,964.8452758789062,343.75054931640625
866.9046630859375,834.0050048828125,-50.78133010864258,964.8452758789062,339.8442687988281
865.2596435546875,835.6500244140625,-50.78133010864258,964.8452758789062,343.75054931640625
866.9046630859375,840.5849609375,-50.78133010864258,964.8452758789062,343.75054931640625
866.9046630859375,840.5849609375,-46.87507247924805,964.8452758789062,343.75054931640625
858.6797485351562,840.5849609375,-46.87507247924805,964.8452758789062,339.8442687988281
868.5496215820312,840.5849609375,-46.87507247924805,964.8452758789062,339.8442687988281
866.9046630859375,857.0347290039062,-46.87507247924805,964.8452758789062,339.8442687988281
871.839599609375,863.6146850585938,-50.78133010864258,964.8452758789062,335.9380187988281
871.839599609375,863.6146850585938,-42.96881866455078,957.0327758789062,343.75054931640625
871.839599609375,863.6146850585938,-39.06256103515625,972.6577758789062,343.75054931640625
868.5496215820312,860.32470703125,-39.06256103515625,972.6577758789062,343.75054931640625
868.5496215820312,857.0347290039062,-46.87507247924805,960.9390258789062,343.75054931640625
863.6146850585938,861.9697265625,-46.87507247924805,960.9390258789062,343.75054931640625
865.2596435546875,922.833984375,-46.87507247924805,960.9390258789062,347.65679931640625
870.194580078125,899.8042602539062,-42.96881866455078,964.8452758789062,351.56304931640625
868.5496215820312,881.70947265625,-46.87507247924805,960.9390258789062,347.65679931640625
868.5496215820312,881.70947265625,-50.78133010864258,960.9390258789062,347.65679931640625
868.5496215820312,881.70947265625,-46.87507247924805,964.8452758789062,343.75054931640625
863.6146850585938,876.7745361328125,-46.87507247924805,964.8452758789062,343.75054931640625
863.6146850585938,878.4194946289062,-50.78133010864258,960.9390258789062,347.65679931640625
860.32470703125,873.4845581054688,-46.87507247924805,964.8452758789062,347.65679931640625
861.9697265625,871.839599609375,-46.87507247924805,964.8452758789062,347.65679931640625
861.9697265625,870.194580078125,-46.87507247924805,957.0327758789062,347.65679931640625
861.9697265625,870.194580078125,-54.687583923339844,964.8452758789062,343.75054931640625
860.32470703125,898.1592407226562,-54.687583923339844,964.8452758789062,343.75054931640625
860.32470703125,899.8042602539062,-42.96881866455078,972.6577758789062,351.56304931640625
866.9046630859375,884.9994506835938,-46.87507247924805,964.8452758789062,351.56304931640625
866.9046630859375,884.9994506835938,-46.87507247924805,960.9390258789062,355.46929931640625
866.9046630859375,884.9994506835938,-46.87507247924805,960.9390258789062,351.56304931640625
870.194580078125,881.70947265625,-46.87507247924805,960.9390258789062,351.56304931640625
871.839599609375,896.5142822265625,-50.78133010864258,960.9390258789062,347.65679931640625
871.839599609375,896.5142822265625,-54.687583923339844,960.9390258789062,343.75054931640625
871.839599609375,863.6146850585938,-46.87507247924805,968.7515258789062,351.56304931640625
870.194580078125,868.5496215820312,-58.59384155273438,960.9390258789062,351.56304931640625
870.194580078125,868.5496215820312,-62.5000991821289,964.8452758789062,347.65679931640625
870.194580078125,868.5496215820312,-58.59384155273438,964.8452758789062,347.65679931640625
865.2596435546875,842.2299194335938,-54.687583923339844,960.9390258789062,351.56304931640625
870.194580078125,873.4845581054688,-50.78133010864258,968.7515258789062,351.56304931640625
870.194580078125,873.4845581054688,-50.78133010864258,964.8452758789062,355.46929931640625
870.194580078125,873.4845581054688,-58.59384155273438,960.9390258789062,351.56304931640625
870.194580078125,873.4845581054688,-62.5000991821289,960.9390258789062,347.65679931640625
870.194580078125,843.8749389648438,-50.78133010864258,964.8452758789062,347.65679931640625
870.194580078125,843.8749389648438,-54.687583923339844,960.9390258789062,343.75054931640625
868.5496215820312,843.8749389648438,-54.687583923339844,960.9390258789062,343.75054931640625
870.194580078125,834.0050048828125,-46.87507247924805,964.8452758789062,343.75054931640625
870.194580078125,834.0050048828125,-54.687583923339844,964.8452758789062,339.8442687988281
871.839599609375,838.9400024414062,-58.59384155273438,964.8452758789062,339.8442687988281
865.2596435546875,848.8098754882812,-50.78133010864258,960.9390258789062,343.75054931640625
858.6797485351562,857.0347290039062,-54.687583923339844,957.0327758789062,343.75054931640625
858.6797485351562,840.5849609375,-58.59384155273438,960.9390258789062,339.8442687988281
861.9697265625,840.5849609375,-58.59384155273438,964.8452758789062,343.75054931640625
861.9697265625,840.5849609375,-54.687583923339844,964.8452758789062,347.65679931640625
866.9046630859375,843.8749389648438,-54.687583923339844,964.8452758789062,347.65679931640625
870.194580078125,848.8098754882812,-78.1251220703125,972.6577758789062,347.65679931640625
870.194580078125,848.8098754882812,-39.06256103515625,964.8452758789062,343.75054931640625
870.194580078125,848.8098754882812,-54.687583923339844,960.9390258789062,339.8442687988281
870.194580078125,848.8098754882812,-50.78133010864258,960.9390258789062,351.56304931640625
840.5849609375,838.9400024414062,-50.78133010864258,960.9390258789062,351.56304931640625
852.0997924804688,845.5198974609375,-50.78133010864258,964.8452758789062,343.75054931640625
852.0997924804688,845.5198974609375,-50.78133010864258,964.8452758789062,347.65679931640625
860.32470703125,852.0997924804688,-50.78133010864258,964.8452758789062,347.65679931640625
861.9697265625,853.7448120117188,-54.687583923339844,960.9390258789062,343.75054931640625
861.9697265625,853.7448120117188,-50.78133010864258,960.9390258789062,343.75054931640625
865.2596435546875,852.0997924804688,-50.78133010864258,960.9390258789062,343.75054931640625
866.9046630859375,845.5198974609375,-46.87507247924805,968.7515258789062,343.75054931640625
863.6146850585938,843.8749389648438,-50.78133010864258,976.5640258789062,339.8442687988281
858.6797485351562,838.9400024414062,-50.78133010864258,960.9390258789062,343.75054931640625
858.6797485351562,838.9400024414062,-58.59384155273438,960.9390258789062,347.65679931640625
860.32470703125,843.8749389648438,-58.59384155273438,960.9390258789062,347.65679931640625
857.0347290039062,838.9400024414062,-62.5000991821289,964.8452758789062,343.75054931640625
857.0347290039062,838.9400024414062,-58.59384155273438,964.8452758789062,343.75054931640625
857.0347290039062,838.9400024414062,-50.78133010864258,964.8452758789062,351.56304931640625
858.6797485351562,840.5849609375,-50.78133010864258,964.8452758789062,351.56304931640625
870.194580078125,825.7801513671875,-54.687583923339844,960.9390258789062,343.75054931640625
855.3897705078125,830.715087890625,-54.687583923339844,960.9390258789062,343.75054931640625
858.6797485351562,838.9400024414062,-46.87507247924805,964.8452758789062,347.65679931640625
860.32470703125,835.6500244140625,-50.78133010864258,964.8452758789062,343.75054931640625
860.32470703125,835.6500244140625,-46.87507247924805,964.8452758789062,343.75054931640625
866.9046630859375,830.715087890625,-46.87507247924805,960.9390258789062,343.75054931640625
863.6146850585938,825.7801513671875,-54.687583923339844,964.8452758789062,343.75054931640625
868.5496215820312,824.1351318359375,-54.687583923339844,964.8452758789062,343.75054931640625
865.2596435546875,825.7801513671875,-42.96881866455078,953.12646484375,351.56304931640625
865.2596435546875,825.7801513671875,-46.87507247924805,972.6577758789062,347.65679931640625
865.2596435546875,825.7801513671875,-46.87507247924805,968.7515258789062,347.65679931640625
866.9046630859375,820.84521484375,-46.87507247924805,968.7515258789062,347.65679931640625
861.9697265625,824.1351318359375,-46.87507247924805,960.9390258789062,347.65679931640625
861.9697265625,824.1351318359375,-50.78133010864258,960.9390258789062,347.65679931640625
863.6146850585938,825.7801513671875,-50.78133010864258,964.8452758789062,347.65679931640625
860.32470703125,822.4901733398438,-54.687583923339844,960.9390258789062,347.65679931640625
858.6797485351562,824.1351318359375,-50.78133010864258,968.7515258789062,343.75054931640625
863.6146850585938,837.2949829101562,-42.96881866455078,964.8452758789062,343.75054931640625
853.7448120117188,835.6500244140625,-42.96881866455078,964.8452758789062,343.75054931640625
853.7448120117188,835.6500244140625,-50.78133010864258,964.8452758789062,335.9380187988281
857.0347290039062,832.3600463867188,-50.78133010864258,964.8452758789062,335.9380187988281
855.3897705078125,834.0050048828125,-42.96881866455078,960.9390258789062,343.75054931640625
850.454833984375,825.7801513671875,-46.87507247924805,964.8452758789062,343.75054931640625
850.454833984375,825.7801513671875,-42.96881866455078,976.5640258789062,347.65679931640625
843.8749389648438,822.4901733398438,-50.78133010864258,972.6577758789062,347.65679931640625
843.8749389648438,822.4901733398438,-54.687583923339844,957.0327758789062,343.75054931640625
848.8098754882812,825.7801513671875,-54.687583923339844,960.9390258789062,343.75054931640625
848.8098754882812,829.070068359375,-54.687583923339844,960.9390258789062,343.75054931640625
855.3897705078125,832.3600463867188,-39.06256103515625,960.9390258789062,347.65679931640625
855.3897705078125,832.3600463867188,-39.06256103515625,968.7515258789062,343.75054931640625
858.6797485351562,829.070068359375,-42.96881866455078,968.7515258789062,339.8442687988281
848.8098754882812,830.715087890625,-42.96881866455078,960.9390258789062,343.75054931640625
848.8098754882812,829.070068359375,-39.06256103515625,964.8452758789062,343.75054931640625
848.8098754882812,829.070068359375,-42.96881866455078,964.8452758789062,343.75054931640625
848.8098754882812,835.6500244140625,-42.96881866455078,964.8452758789062,343.75054931640625
832.3600463867188,840.5849609375,-39.06256103515625,964.8452758789062,339.8442687988281
838.9400024414062,838.9400024414062,-39.06256103515625,976.5640258789062,343.75054931640625
838.9400024414062,838.9400024414062,-39.06256103515625,964.8452758789062,347.65679931640625
838.9400024414062,838.9400024414062,-39.06256103515625,957.0327758789062,347.65679931640625
842.2299194335938,838.9400024414062,-46.87507247924805,960.9390258789062,347.65679931640625
845.5198974609375,842.2299194335938,-46.87507247924805,960.9390258789062,347.65679931640625
845.5198974609375,842.2299194335938,-50.78133010864258,964.8452758789062,347.65679931640625
840.5849609375,842.2299194335938,-50.78133010864258,964.8452758789062,347.65679931640625
855.3897705078125,845.5198974609375,-46.87507247924805,964.8452758789062,347.65679931640625
855.3897705078125,845.5198974609375,-42.96881866455078,964.8452758789062,347.65679931640625
847.1648559570312,847.1648559570312,-39.06256103515625,960.9390258789062,343.75054931640625
847.1648559570312,847.1648559570312,-42.96881866455078,960.9390258789062,343.75054931640625
853.7448120117188,848.8098754882812,-39.06256103515625,960.9390258789062,347.65679931640625
866.9046630859375,835.6500244140625,-42.96881866455078,964.8452758789062,339.8442687988281
855.3897705078125,819.2001953125,-42.96881866455078,972.6577758789062,343.75054931640625
855.3897705078125,819.2001953125,-42.96881866455078,960.9390258789062,347.65679931640625
857.0347290039062,812.6203002929688,-50.78133010864258,960.9390258789062,343.75054931640625
852.0997924804688,807.6853637695312,-50.78133010864258,964.8452758789062,343.75054931640625
852.0997924804688,807.6853637695312,-42.96881866455078,960.9390258789062,347.65679931640625
855.3897705078125,802.7504272460938,-50.78133010864258,960.9390258789062,347.65679931640625
857.0347290039062,773.1407470703125,-54.687583923339844,968.7515258789062,343.75054931640625
857.0347290039062,766.5608520507812,-46.87507247924805,964.8452758789062,343.75054931640625
853.7448120117188,791.2355346679688,-39.06256103515625,960.9390258789062,351.56304931640625
853.7448120117188,810.9752807617188,-39.06256103515625,960.9390258789062,351.56304931640625
858.6797485351562,824.1351318359375,-39.06256103515625,964.8452758789062,347.65679931640625
858.6797485351562,824.1351318359375,-42.96881866455078,960.9390258789062,343.75054931640625
850.454833984375,820.84521484375,-42.96881866455078,964.8452758789062,343.75054931640625
850.454833984375,820.84521484375,-46.87507247924805,964.8452758789062,343.75054931640625
850.454833984375,820.84521484375,-46.87507247924805,960.9390258789062,343.75054931640625
848.8098754882812,815.9102783203125,-42.96881866455078,957.0327758789062,347.65679931640625
848.8098754882812,797.8154907226562,-42.96881866455078,957.0327758789062,347.65679931640625
847.1648559570312,796.1704711914062,-46.87507247924805,964.8452758789062,343.75054931640625
847.1648559570312,799.46044921875,-46.87507247924805,964.8452758789062,343.75054931640625
848.8098754882812,814.2652587890625,-46.87507247924805,964.8452758789062,343.75054931640625
850.454833984375,822.4901733398438,-50.78133010864258,964.8452758789062,347.65679931640625
858.6797485351562,822.4901733398438,-46.87507247924805,960.9390258789062,347.65679931640625
858.6797485351562,822.4901733398438,-42.96881866455078,960.9390258789062,347.65679931640625
868.5496215820312,814.2652587890625,-42.96881866455078,957.0327758789062,339.8442687988281
863.6146850585938,847.1648559570312,-42.96881866455078,964.8452758789062,343.75054931640625
863.6146850585938,847.1648559570312,-42.96881866455078,957.0327758789062,343.75054931640625
861.9697265625,878.4194946289062,-42.96881866455078,957.0327758789062,343.75054931640625
861.9697265625,878.4194946289062,-42.96881866455078,960.9390258789062,343.75054931640625
858.6797485351562,871.839599609375,-42.96881866455078,964.8452758789062,347.65679931640625
857.0347290039062,865.2596435546875,-39.06256103515625,960.9390258789062,343.75054931640625
857.0347290039062,847.1648559570312,-42.96881866455078,960.9390258789062,343.75054931640625
855.3897705078125,840.5849609375,-39.06256103515625,960.9390258789062,347.65679931640625
855.3897705078125,838.9400024414062,-42.96881866455078,964.8452758789062,343.75054931640625
857.0347290039062,842.2299194335938,-39.06256103515625,960.9390258789062,343.75054931640625
857.0347290039062,838.9400024414062,-50.78133010864258,960.9390258789062,339.8442687988281
848.8098754882812,842.2299194335938,-42.96881866455078,957.0327758789062,343.75054931640625
855.3897705078125,845.5198974609375,-42.96881866455078,957.0327758789062,343.75054931640625
853.7448120117188,843.8749389648438,-46.87507247924805,960.9390258789062,343.75054931640625
860.32470703125,853.7448120117188,-42.96881866455078,964.8452758789062,347.65679931640625
860.32470703125,853.7448120117188,-39.06256103515625,964.8452758789062,347.65679931640625
860.32470703125,853.7448120117188,-46.87507247924805,968.7515258789062,343.75054931640625
858.6797485351562,858.6797485351562,-46.87507247924805,968.7515258789062,343.75054931640625
865.2596435546875,857.0347290039062,-39.06256103515625,968.7515258789062,351.56304931640625
865.2596435546875,857.0347290039062,-42.96881866455078,964.8452758789062,347.65679931640625
860.32470703125,863.6146850585938,-39.06256103515625,964.8452758789062,347.65679931640625
863.6146850585938,871.839599609375,-39.06256103515625,964.8452758789062,343.75054931640625
855.3897705078125,880.064453125,-46.87507247924805,964.8452758789062,335.9380187988281
850.454833984375,861.9697265625,-39.06256103515625,960.9390258789062,343.75054931640625
852.0997924804688,850.454833984375,-39.06256103515625,960.9390258789062,343.75054931640625
850.454833984375,845.5198974609375,-42.96881866455078,960.9390258789062,339.8442687988281
857.0347290039062,848.8098754882812,-58.59384155273438,1003.9078369140624,339.8442687988281
850.454833984375,855.3897705078125,-42.96881866455078,941.40771484375,351.56304931640625
847.1648559570312,891.579345703125,-58.59384155273438,980.4702758789062,343.75054931640625
847.1648559570312,891.579345703125,-54.687583923339844,949.22021484375,355.46929931640625
848.8098754882812,888.2893676757812,-54.687583923339844,949.22021484375,355.46929931640625
837.2949829101562,881.70947265625,-46.87507247924805,968.7515258789062,347.65679931640625
838.9400024414062,871.839599609375,-42.96881866455078,964.8452758789062,343.75054931640625
845.5198974609375,858.6797485351562,-50.78133010864258,957.0327758789062,343.75054931640625
845.5198974609375,858.6797485351562,-54.687583923339844,960.9390258789062,339.8442687988281
845.5198974609375,845.5198974609375,-58.59384155273438,964.8452758789062,335.9380187988281
850.454833984375,848.8098754882812,-50.78133010864258,964.8452758789062,339.8442687988281
850.454833984375,848.8098754882812,-54.687583923339844,964.8452758789062,339.8442687988281
850.454833984375,848.8098754882812,-46.87507247924805,964.8452758789062,347.65679931640625
842.2299194335938,840.5849609375,-46.87507247924805,964.8452758789062,347.65679931640625
838.9400024414062,843.8749389648438,-62.5000991821289,964.8452758789062,343.75054931640625
835.6500244140625,847.1648559570312,-66.40635681152344,960.9390258789062,339.8442687988281
835.6500244140625,847.1648559570312,-62.5000991821289,964.8452758789062,339.8442687988281
845.5198974609375,850.454833984375,-62.5000991821289,964.8452758789062,339.8442687988281
845.5198974609375,850.454833984375,-58.59384155273438,968.7515258789062,335.9380187988281
845.5198974609375,850.454833984375,-50.78133010864258,960.9390258789062,339.8442687988281
845.5198974609375,850.454833984375,-50.78133010864258,964.8452758789062,339.8442687988281
842.2299194335938,840.5849609375,-50.78133010864258,964.8452758789062,339.8442687988281
857.0347290039062,860.32470703125,-66.40635681152344,960.9390258789062,335.9380187988281
858.6797485351562,870.194580078125,-66.40635681152344,960.9390258789062,335.9380187988281
860.32470703125,881.70947265625,-66.40635681152344,960.9390258789062,335.9380187988281
860.32470703125,884.9994506835938,-54.687583923339844,964.8452758789062,339.8442687988281
848.8098754882812,894.8693237304688,-42.96881866455078,964.8452758789062,343.75054931640625
834.0050048828125,883.3544311523438,-62.5000991821289,972.6577758789062,332.0317687988281
838.9400024414062,875.1295166015625,-66.40635681152344,968.7515258789062,335.9380187988281
842.2299194335938,852.0997924804688,-66.40635681152344,964.8452758789062,332.0317687988281
838.9400024414062,850.454833984375,-50.78133010864258,968.7515258789062,339.8442687988281
847.1648559570312,845.5198974609375,-50.78133010864258,976.5640258789062,332.0317687988281
847.1648559570312,845.5198974609375,-58.59384155273438,976.5640258789062,328.1255187988281
847.1648559570312,845.5198974609375,-54.687583923339844,964.8452758789062,328.1255187988281
847.1648559570312,845.5198974609375,-46.87507247924805,964.8452758789062,332.0317687988281
853.7448120117188,850.454833984375,-46.87507247924805,964.8452758789062,332.0317687988281
858.6797485351562,845.5198974609375,-39.06256103515625,964.8452758789062,332.0317687988281
855.3897705078125,857.0347290039062,-46.87507247924805,964.8452758789062,332.0317687988281
855.3897705078125,857.0347290039062,-46.87507247924805,964.8452758789062,335.9380187988281
853.7448120117188,852.0997924804688,-46.87507247924805,964.8452758789062,335.9380187988281
852.0997924804688,835.6500244140625,-50.78133010864258,968.7515258789062,335.9380187988281
852.0997924804688,835.6500244140625,-39.06256103515625,968.7515258789062,339.8442687988281
855.3897705078125,832.3600463867188,-39.06256103515625,964.8452758789062,343.75054931640625
855.3897705078125,832.3600463867188,-46.87507247924805,964.8452758789062,335.9380187988281
866.9046630859375,835.6500244140625,-46.87507247924805,964.8452758789062,335.9380187988281
861.9697265625,832.3600463867188,-50.78133010864258,972.6577758789062,335.9380187988281
861.9697265625,832.3600463867188,-42.96881866455078,960.9390258789062,335.9380187988281
855.3897705078125,840.5849609375,-50.78133010864258,964.8452758789062,335.9380187988281
845.5198974609375,819.2001953125,-54.687583923339844,964.8452758789062,335.9380187988281
843.8749389648438,810.9752807617188,-46.87507247924805,968.7515258789062,335.9380187988281
837.2949829101562,764.9158325195312,-46.87507247924805,964.8452758789062,335.9380187988281
845.5198974609375,794.5255126953125,-42.96881866455078,964.8452758789062,335.9380187988281
845.5198974609375,794.5255126953125,-46.87507247924805,964.8452758789062,335.9380187988281
852.0997924804688,832.3600463867188,-46.87507247924805,964.8452758789062,335.9380187988281
843.8749389648438,837.2949829101562,-54.687583923339844,968.7515258789062,332.0317687988281
843.8749389648438,837.2949829101562,-50.78133010864258,964.8452758789062,332.0317687988281
850.454833984375,835.6500244140625,-50.78133010864258,964.8452758789062,332.0317687988281
850.454833984375,827.4251098632812,-39.06256103515625,976.5640258789062,339.8442687988281
850.454833984375,827.4251098632812,-42.96881866455078,968.7515258789062,339.8442687988281
848.8098754882812,863.6146850585938,-42.96881866455078,964.8452758789062,335.9380187988281
855.3897705078125,889.9343872070312,-46.87507247924805,968.7515258789062,339.8442687988281
861.9697265625,863.6146850585938,-39.06256103515625,960.9390258789062,347.65679931640625
861.9697265625,863.6146850585938,-42.96881866455078,960.9390258789062,347.65679931640625
860.32470703125,842.2299194335938,-54.687583923339844,972.6577758789062,339.8442687988281
860.32470703125,842.2299194335938,-50.78133010864258,972.6577758789062,339.8442687988281
860.32470703125,842.2299194335938,-42.96881866455078,968.7515258789062,339.8442687988281
866.9046630859375,842.2299194335938,-42.96881866455078,968.7515258789062,339.8442687988281
858.6797485351562,822.4901733398438,-46.87507247924805,953.12646484375,339.8442687988281
858.6797485351562,822.4901733398438,-54.687583923339844,964.8452758789062,335.9380187988281
868.5496215820312,827.4251098632812,-50.78133010864258,972.6577758789062,335.9380187988281
868.5496215820312,827.4251098632812,-46.87507247924805,972.6577758789062,335.9380187988281
863.6146850585938,827.4251098632812,-54.687583923339844,968.7515258789062,332.0317687988281
865.2596435546875,784.6556396484375,-39.06256103515625,972.6577758789062,339.8442687988281
855.3897705078125,776.4307250976562,-42.96881866455078,964.8452758789062,343.75054931640625
863.6146850585938,783.0106201171875,-42.96881866455078,964.8452758789062,343.75054931640625
858.6797485351562,779.720703125,-50.78133010864258,960.9390258789062,343.75054931640625
860.32470703125,792.8805541992188,-46.87507247924805,964.8452758789062,347.65679931640625
855.3897705078125,779.720703125,-42.96881866455078,964.8452758789062,351.56304931640625
855.3897705078125,779.720703125,-42.96881866455078,968.7515258789062,347.65679931640625
855.3897705078125,779.720703125,-46.87507247924805,968.7515258789062,347.65679931640625
845.5198974609375,791.2355346679688,-50.78133010864258,960.9390258789062,343.75054931640625
843.8749389648438,763.2708740234375,-46.87507247924805,964.8452758789062,339.8442687988281
835.6500244140625,789.590576171875,-54.687583923339844,964.8452758789062,343.75054931640625
835.6500244140625,789.590576171875,-50.78133010864258,964.8452758789062,343.75054931640625
843.8749389648438,799.46044921875,-50.78133010864258,964.8452758789062,343.75054931640625
832.3600463867188,807.6853637695312,-46.87507247924805,964.8452758789062,339.8442687988281
832.3600463867188,807.6853637695312,-46.87507247924805,960.9390258789062,339.8442687988281
832.3600463867188,807.6853637695312,-42.96881866455078,960.9390258789062,343.75054931640625
835.6500244140625,812.6203002929688,-42.96881866455078,960.9390258789062,343.75054931640625
842.2299194335938,824.1351318359375,-50.78133010864258,968.7515258789062,335.9380187988281
842.2299194335938,824.1351318359375,-46.87507247924805,960.9390258789062,339.8442687988281
843.8749389648438,817.5552368164062,-46.87507247924805,960.9390258789062,339.8442687988281
838.9400024414062,822.4901733398438,-50.78133010864258,968.7515258789062,339.8442687988281
840.5849609375,845.5198974609375,-50.78133010864258,960.9390258789062,339.8442687988281
850.454833984375,858.6797485351562,-50.78133010864258,964.8452758789062,339.8442687988281
861.9697265625,857.0347290039062,-39.06256103515625,964.8452758789062,347.65679931640625
858.6797485351562,824.1351318359375,-50.78133010864258,964.8452758789062,347.65679931640625
858.6797485351562,792.8805541992188,-50.78133010864258,964.8452758789062,343.75054931640625
857.0347290039062,784.6556396484375,-50.78133010864258,964.8452758789062,343.75054931640625
858.6797485351562,801.1054077148438,-50.78133010864258,964.8452758789062,339.8442687988281
852.0997924804688,801.1054077148438,-42.96881866455078,972.6577758789062,343.75054931640625
857.0347290039062,827.4251098632812,-42.96881866455078,964.8452758789062,343.75054931640625
857.0347290039062,829.070068359375,-46.87507247924805,960.9390258789062,339.8442687988281
855.3897705078125,830.715087890625,-42.96881866455078,957.0327758789062,343.75054931640625
847.1648559570312,824.1351318359375,-46.87507247924805,964.8452758789062,347.65679931640625
852.0997924804688,827.4251098632812,-50.78133010864258,972.6577758789062,347.65679931640625
848.8098754882812,834.0050048828125,-50.78133010864258,964.8452758789062,347.65679931640625
845.5198974609375,822.4901733398438,-54.687583923339844,964.8452758789062,343.75054931640625
845.5198974609375,822.4901733398438,-50.78133010864258,964.8452758789062,347.65679931640625
843.8749389648438,827.4251098632812,-50.78133010864258,964.8452758789062,347.65679931640625
843.8749389648438,824.1351318359375,-50.78133010864258,964.8452758789062,347.65679931640625
843.8749389648438,824.1351318359375,-46.87507247924805,964.8452758789062,343.75054931640625
845.5198974609375,825.7801513671875,-50.78133010864258,960.9390258789062,347.65679931640625
848.8098754882812,809.330322265625,-50.78133010864258,968.7515258789062,343.75054931640625
845.5198974609375,806.0403442382812,-42.96881866455078,953.12646484375,343.75054931640625
845.5198974609375,806.0403442382812,-39.06256103515625,964.8452758789062,351.56304931640625
845.5198974609375,806.0403442382812,-42.96881866455078,976.5640258789062,347.65679931640625
843.8749389648438,794.5255126953125,-46.87507247924805,960.9390258789062,343.75054931640625
843.8749389648438,783.0106201171875,-50.78133010864258,964.8452758789062,347.65679931640625
843.8749389648438,769.850830078125,-50.78133010864258,964.8452758789062,347.65679931640625
847.1648559570312,779.720703125,-42.96881866455078,964.8452758789062,347.65679931640625
847.1648559570312,779.720703125,-39.06256103515625,960.9390258789062,347.65679931640625
847.1648559570312,779.720703125,-46.87507247924805,964.8452758789062,343.75054931640625
848.8098754882812,789.590576171875,-54.687583923339844,964.8452758789062,339.8442687988281
848.8098754882812,789.590576171875,-46.87507247924805,957.0327758789062,343.75054931640625
848.8098754882812,789.590576171875,-39.06256103515625,964.8452758789062,347.65679931640625
848.8098754882812,807.6853637695312,-39.06256103515625,964.8452758789062,347.65679931640625
845.5198974609375,817.5552368164062,-42.96881866455078,960.9390258789062,347.65679931640625
847.1648559570312,845.5198974609375,-46.87507247924805,960.9390258789062,343.75054931640625
847.1648559570312,835.6500244140625,-50.78133010864258,957.0327758789062,347.65679931640625
847.1648559570312,835.6500244140625,-54.687583923339844,964.8452758789062,343.75054931640625
848.8098754882812,834.0050048828125,-54.687583923339844,964.8452758789062,343.75054931640625
843.8749389648438,829.070068359375,-42.96881866455078,964.8452758789062,347.65679931640625
843.8749389648438,829.070068359375,-46.87507247924805,964.8452758789062,343.75054931640625
847.1648559570312,820.84521484375,-46.87507247924805,960.9390258789062,351.56304931640625
842.2299194335938,822.4901733398438,-50.78133010864258,968.7515258789062,347.65679931640625
842.2299194335938,822.4901733398438,-50.78133010864258,964.8452758789062,343.75054931640625
847.1648559570312,824.1351318359375,-42.96881866455078,957.0327758789062,347.65679931640625
847.1648559570312,824.1351318359375,-42.96881866455078,960.9390258789062,347.65679931640625
847.1648559570312,830.715087890625,-42.96881866455078,960.9390258789062,347.65679931640625
838.9400024414062,838.9400024414062,-50.78133010864258,960.9390258789062,343.75054931640625
843.8749389648438,830.715087890625,-50.78133010864258,960.9390258789062,343.75054931640625
843.8749389648438,832.3600463867188,-42.96881866455078,957.0327758789062,351.56304931640625
847.1648559570312,825.7801513671875,-42.96881866455078,957.0327758789062,351.56304931640625
847.1648559570312,825.7801513671875,-42.96881866455078,960.9390258789062,347.65679931640625
850.454833984375,815.9102783203125,-46.87507247924805,960.9390258789062,347.65679931640625
850.454833984375,815.9102783203125,-46.87507247924805,964.8452758789062,351.56304931640625
850.454833984375,815.9102783203125,-39.06256103515625,960.9390258789062,351.56304931640625
852.0997924804688,817.5552368164062,-39.06256103515625,960.9390258789062,351.56304931640625
850.454833984375,815.9102783203125,-39.06256103515625,964.8452758789062,351.56304931640625
850.454833984375,815.9102783203125,-42.96881866455078,964.8452758789062,351.56304931640625
855.3897705078125,822.4901733398438,-46.87507247924805,960.9390258789062,351.56304931640625
861.9697265625,822.4901733398438,-42.96881866455078,960.9390258789062,351.56304931640625
860.32470703125,819.2001953125,-39.06256103515625,960.9390258789062,351.56304931640625
855.3897705078125,840.5849609375,-46.87507247924805,960.9390258789062,347.65679931640625
855.3897705078125,840.5849609375,-42.96881866455078,960.9390258789062,347.65679931640625
855.3897705078125,825.7801513671875,-39.06256103515625,953.12646484375,351.56304931640625
855.3897705078125,825.7801513671875,-39.06256103515625,957.0327758789062,351.56304931640625
852.0997924804688,829.070068359375,-39.06256103515625,957.0327758789062,351.56304931640625
840.5849609375,810.9752807617188,-39.06256103515625,957.0327758789062,351.56304931640625
845.5198974609375,814.2652587890625,-39.06256103515625,960.9390258789062,355.46929931640625
853.7448120117188,842.2299194335938,-46.87507247924805,960.9390258789062,351.56304931640625
853.7448120117188,791.2355346679688,-39.06256103515625,957.0327758789062,355.46929931640625
853.7448120117188,791.2355346679688,-39.06256103515625,960.9390258789062,355.46929931640625
852.0997924804688,796.1704711914062,-39.06256103515625,960.9390258789062,355.46929931640625
855.3897705078125,802.7504272460938,-46.87507247924805,960.9390258789062,351.56304931640625
853.7448120117188,850.454833984375,-46.87507247924805,964.8452758789062,351.56304931640625
853.7448120117188,850.454833984375,-46.87507247924805,960.9390258789062,351.56304931640625
853.7448120117188,850.454833984375,-42.96881866455078,960.9390258789062,351.56304931640625
857.0347290039062,863.6146850585938,-42.96881866455078,960.9390258789062,351.56304931640625
857.0347290039062,868.5496215820312,-39.06256103515625,960.9390258789062,351.56304931640625
857.0347290039062,868.5496215820312,-42.96881866455078,960.9390258789062,351.56304931640625
857.0347290039062,884.9994506835938,-42.96881866455078,960.9390258789062,351.56304931640625
855.3897705078125,891.579345703125,-46.87507247924805,957.0327758789062,347.65679931640625
848.8098754882812,903.09423828125,-42.96881866455078,968.7515258789062,347.65679931640625
848.8098754882812,903.09423828125,-39.06256103515625,960.9390258789062,355.46929931640625
829.070068359375,871.839599609375,-39.06256103515625,960.9390258789062,355.46929931640625
840.5849609375,875.1295166015625,-42.96881866455078,960.9390258789062,355.46929931640625
840.5849609375,875.1295166015625,-42.96881866455078,960.9390258789062,359.37554931640625
837.2949829101562,878.4194946289062,-42.96881866455078,960.9390258789062,359.37554931640625
843.8749389648438,866.9046630859375,-42.96881866455078,960.9390258789062,359.37554931640625
850.454833984375,861.9697265625,-42.96881866455078,960.9390258789062,359.37554931640625
855.3897705078125,861.9697265625,-46.87507247924805,960.9390258789062,351.56304931640625
852.0997924804688,865.2596435546875,-46.87507247924805,960.9390258789062,351.56304931640625
852.0997924804688,860.32470703125,-42.96881866455078,964.8452758789062,347.65679931640625
852.0997924804688,860.32470703125,-39.06256103515625,960.9390258789062,351.56304931640625
852.0997924804688,860.32470703125,-39.06256103515625,957.0327758789062,351.56304931640625
855.3897705078125,870.194580078125,-46.87507247924805,960.9390258789062,347.65679931640625
857.0347290039062,881.70947265625,-39.06256103515625,968.7515258789062,359.37554931640625
860.32470703125,883.3544311523438,-42.96881866455078,957.0327758789062,355.46929931640625
860.32470703125,896.5142822265625,-42.96881866455078,957.0327758789062,355.46929931640625
858.6797485351562,901.44921875,-46.87507247924805,960.9390258789062,351.56304931640625
858.6797485351562,921.18896484375,-42.96881866455078,960.9390258789062,355.46929931640625
855.3897705078125,917.8990478515624,-46.87507247924805,964.8452758789062,355.46929931640625
855.3897705078125,917.8990478515624,-42.96881866455078,957.0327758789062,355.46929931640625
850.454833984375,912.964111328125,-42.96881866455078,957.0327758789062,355.46929931640625
865.2596435546875,945.8637084960938,-39.06256103515625,960.9390258789062,355.46929931640625
860.32470703125,919.5440063476562,-39.06256103515625,968.7515258789062,355.46929931640625
855.3897705078125,906.3841552734376,-39.06256103515625,968.7515258789062,355.46929931640625
855.3897705078125,886.6444091796875,-39.06256103515625,957.0327758789062,355.46929931640625
857.0347290039062,886.6444091796875,-46.87507247924805,960.9390258789062,351.56304931640625
843.8749389648438,873.4845581054688,-39.06256103515625,957.0327758789062,359.37554931640625
838.9400024414062,870.194580078125,-39.06256103515625,957.0327758789062,359.37554931640625
850.454833984375,861.9697265625,-50.78133010864258,957.0327758789062,355.46929931640625
850.454833984375,861.9697265625,-42.96881866455078,964.8452758789062,359.37554931640625
848.8098754882812,852.0997924804688,-42.96881866455078,964.8452758789062,359.37554931640625
843.8749389648438,843.8749389648438,-39.06256103515625,957.0327758789062,359.37554931640625
848.8098754882812,837.2949829101562,-46.87507247924805,957.0327758789062,347.65679931640625
848.8098754882812,824.1351318359375,-39.06256103515625,957.0327758789062,355.46929931640625
847.1648559570312,817.5552368164062,-42.96881866455078,957.0327758789062,351.56304931640625
848.8098754882812,829.070068359375,-46.87507247924805,960.9390258789062,351.56304931640625
847.1648559570312,838.9400024414062,-39.06256103515625,964.8452758789062,359.37554931640625
853.7448120117188,840.5849609375,-42.96881866455078,957.0327758789062,359.37554931640625
853.7448120117188,840.5849609375,-46.87507247924805,957.0327758789062,359.37554931640625
853.7448120117188,840.5849609375,-46.87507247924805,960.9390258789062,355.46929931640625
853.7448120117188,840.5849609375,-46.87507247924805,960.9390258789062,359.37554931640625
852.0997924804688,838.9400024414062,-46.87507247924805,960.9390258789062,359.37554931640625
845.5198974609375,840.5849609375,-42.96881866455078,960.9390258789062,359.37554931640625
845.5198974609375,840.5849609375,-39.06256103515625,957.0327758789062,359.37554931640625
857.0347290039062,837.2949829101562,-39.06256103515625,960.9390258789062,363.2818298339844
855.3897705078125,834.0050048828125,-42.96881866455078,957.0327758789062,355.46929931640625
855.3897705078125,830.715087890625,-42.96881866455078,957.0327758789062,355.46929931640625
855.3897705078125,838.9400024414062,-39.06256103515625,949.22021484375,355.46929931640625
858.6797485351562,837.2949829101562,-42.96881866455078,957.0327758789062,359.37554931640625
858.6797485351562,838.9400024414062,-42.96881866455078,953.12646484375,359.37554931640625
858.6797485351562,838.9400024414062,-46.87507247924805,957.0327758789062,359.37554931640625
861.9697265625,832.3600463867188,-46.87507247924805,953.12646484375,359.37554931640625
861.9697265625,832.3600463867188,-46.87507247924805,960.9390258789062,363.2818298339844
860.32470703125,829.070068359375,-46.87507247924805,960.9390258789062,363.2818298339844
847.1648559570312,824.1351318359375,-46.87507247924805,957.0327758789062,363.2818298339844
843.8749389648438,835.6500244140625,-39.06256103515625,957.0327758789062,363.2818298339844
843.8749389648438,829.070068359375,-46.87507247924805,960.9390258789062,359.37554931640625
843.8749389648438,829.070068359375,-46.87507247924805,960.9390258789062,355.46929931640625
840.5849609375,835.6500244140625,-42.96881866455078,953.12646484375,359.37554931640625
842.2299194335938,830.715087890625,-42.96881866455078,953.12646484375,359.37554931640625
842.2299194335938,834.0050048828125,-39.06256103515625,957.0327758789062,359.37554931640625
843.8749389648438,829.070068359375,-39.06256103515625,957.0327758789062,359.37554931640625
819.2001953125,829.070068359375,-46.87507247924805,957.0327758789062,359.37554931640625
820.84521484375,830.715087890625,-46.87507247924805,957.0327758789062,359.37554931640625
824.1351318359375,832.3600463867188,-42.96881866455078,957.0327758789062,367.1880798339844
835.6500244140625,802.7504272460938,-42.96881866455078,960.9390258789062,367.1880798339844
830.715087890625,804.3953857421875,-39.06256103515625,949.22021484375,367.1880798339844
830.715087890625,804.3953857421875,-42.96881866455078,960.9390258789062,367.1880798339844
832.3600463867188,812.6203002929688,-42.96881866455078,960.9390258789062,367.1880798339844
850.454833984375,817.5552368164062,-46.87507247924805,953.12646484375,355.46929931640625
850.454833984375,825.7801513671875,-39.06256103515625,957.0327758789062,359.37554931640625
850.454833984375,810.9752807617188,-46.87507247924805,957.0327758789062,359.37554931640625
850.454833984375,810.9752807617188,-42.96881866455078,957.0327758789062,359.37554931640625
855.3897705078125,791.2355346679688,-42.96881866455078,960.9390258789062,359.37554931640625
855.3897705078125,791.2355346679688,-46.87507247924805,960.9390258789062,359.37554931640625
848.8098754882812,799.46044921875,-46.87507247924805,960.9390258789062,359.37554931640625
852.0997924804688,810.9752807617188,-39.06256103515625,953.12646484375,363.2818298339844
852.0997924804688,810.9752807617188,-39.06256103515625,960.9390258789062,367.1880798339844
845.5198974609375,806.0403442382812,-39.06256103515625,960.9390258789062,363.2818298339844
845.5198974609375,812.6203002929688,-42.96881866455078,957.0327758789062,359.37554931640625
847.1648559570312,817.5552368164062,-39.06256103515625,949.22021484375,359.37554931640625
838.9400024414062,822.4901733398438,-39.06256103515625,957.0327758789062,363.2818298339844
837.2949829101562,824.1351318359375,-39.06256103515625,957.0327758789062,359.37554931640625
837.2949829101562,824.1351318359375,-42.96881866455078,957.0327758789062,359.37554931640625
837.2949829101562,824.1351318359375,-42.96881866455078,953.12646484375,359.37554931640625
835.6500244140625,829.070068359375,-42.96881866455078,953.12646484375,359.37554931640625
832.3600463867188,837.2949829101562,-42.96881866455078,957.0327758789062,363.2818298339844
832.3600463867188,837.2949829101562,-42.96881866455078,960.9390258789062,359.37554931640625
824.1351318359375,840.5849609375,-46.87507247924805,964.8452758789062,355.46929931640625
824.1351318359375,840.5849609375,-42.96881866455078,957.0327758789062,355.46929931640625
825.7801513671875,827.4251098632812,-42.96881866455078,957.0327758789062,355.46929931640625
834.0050048828125,794.5255126953125,-54.687583923339844,957.0327758789062,359.37554931640625
842.2299194335938,807.6853637695312,-42.96881866455078,953.12646484375,359.37554931640625
853.7448120117188,891.579345703125,-39.06256103515625,957.0327758789062,359.37554931640625
852.0997924804688,891.579345703125,-39.06256103515625,960.9390258789062,363.2818298339844
852.0997924804688,891.579345703125,-46.87507247924805,957.0327758789062,359.37554931640625
843.8749389648438,924.4789428710938,-42.96881866455078,972.6577758789062,363.2818298339844
842.2299194335938,898.1592407226562,-42.96881866455078,972.6577758789062,363.2818298339844
820.84521484375,952.443603515625,-39.06256103515625,953.12646484375,363.2818298339844
824.1351318359375,962.3134765625,-39.06256103515625,957.0327758789062,363.2818298339844
840.5849609375,963.95849609375,-54.687583923339844,957.0327758789062,371.0943298339844
837.2949829101562,919.5440063476562,-42.96881866455078,957.0327758789062,363.2818298339844
837.2949829101562,919.5440063476562,-39.06256103515625,953.12646484375,363.2818298339844
845.5198974609375,906.3841552734376,-39.06256103515625,953.12646484375,363.2818298339844
845.5198974609375,906.3841552734376,-50.78133010864258,957.0327758789062,355.46929931640625
845.5198974609375,935.9938354492188,-39.06256103515625,949.22021484375,363.2818298339844
845.5198974609375,960.6685180664062,-42.96881866455078,964.8452758789062,363.2818298339844
845.5198974609375,960.6685180664062,-46.87507247924805,964.8452758789062,359.37554931640625
845.5198974609375,960.6685180664062,-46.87507247924805,953.12646484375,363.2818298339844
824.1351318359375,931.0588989257812,-46.87507247924805,957.0327758789062,367.1880798339844
824.1351318359375,931.0588989257812,-54.687583923339844,960.9390258789062,363.2818298339844
825.7801513671875,921.18896484375,-50.78133010864258,957.0327758789062,363.2818298339844
834.0050048828125,914.6090698242188,-50.78133010864258,957.0327758789062,355.46929931640625
834.0050048828125,914.6090698242188,-42.96881866455078,957.0327758789062,359.37554931640625
837.2949829101562,962.3134765625,-39.06256103515625,953.12646484375,359.37554931640625
838.9400024414062,927.7689208984376,-42.96881866455078,953.12646484375,359.37554931640625
838.9400024414062,927.7689208984376,-42.96881866455078,957.0327758789062,359.37554931640625
837.2949829101562,926.1239624023438,-42.96881866455078,957.0327758789062,359.37554931640625
840.5849609375,858.6797485351562,-46.87507247924805,960.9390258789062,359.37554931640625
840.5849609375,858.6797485351562,-46.87507247924805,957.0327758789062,363.2818298339844
840.5849609375,858.6797485351562,-42.96881866455078,957.0327758789062,367.1880798339844
843.8749389648438,863.6146850585938,-42.96881866455078,957.0327758789062,367.1880798339844
842.2299194335938,871.839599609375,-46.87507247924805,957.0327758789062,367.1880798339844
840.5849609375,883.3544311523438,-42.96881866455078,957.0327758789062,367.1880798339844
835.6500244140625,829.070068359375,-39.06256103515625,957.0327758789062,363.2818298339844
838.9400024414062,827.4251098632812,-39.06256103515625,957.0327758789062,367.1880798339844
838.9400024414062,827.4251098632812,-39.06256103515625,953.12646484375,367.1880798339844
838.9400024414062,832.3600463867188,-46.87507247924805,960.9390258789062,363.2818298339844
838.9400024414062,832.3600463867188,-46.87507247924805,957.0327758789062,367.1880798339844
838.9400024414062,834.0050048828125,-46.87507247924805,957.0327758789062,367.1880798339844
829.070068359375,825.7801513671875,-46.87507247924805,953.12646484375,363.2818298339844
829.070068359375,825.7801513671875,-46.87507247924805,957.0327758789062,363.2818298339844
819.2001953125,819.2001953125,-42.96881866455078,957.0327758789062,367.1880798339844
820.84521484375,830.715087890625,-39.06256103515625,953.12646484375,367.1880798339844
825.7801513671875,852.0997924804688,-46.87507247924805,960.9390258789062,367.1880798339844
830.715087890625,860.32470703125,-42.96881866455078,957.0327758789062,367.1880798339844
830.715087890625,860.32470703125,-42.96881866455078,953.12646484375,367.1880798339844
829.070068359375,866.9046630859375,-46.87507247924805,953.12646484375,367.1880798339844
822.4901733398438,880.064453125,-50.78133010864258,957.0327758789062,371.0943298339844
827.4251098632812,871.839599609375,-42.96881866455078,957.0327758789062,363.2818298339844
837.2949829101562,840.5849609375,-39.06256103515625,957.0327758789062,367.1880798339844
832.3600463867188,845.5198974609375,-39.06256103515625,957.0327758789062,367.1880798339844
830.715087890625,842.2299194335938,-39.06256103515625,953.12646484375,367.1880798339844
830.715087890625,842.2299194335938,-39.06256103515625,968.7515258789062,367.1880798339844
837.2949829101562,843.8749389648438,-42.96881866455078,953.12646484375,363.2818298339844
835.6500244140625,837.2949829101562,-42.96881866455078,953.12646484375,363.2818298339844
837.2949829101562,829.070068359375,-39.06256103515625,957.0327758789062,367.1880798339844
837.2949829101562,829.070068359375,-39.06256103515625,960.9390258789062,367.1880798339844
834.0050048828125,855.3897705078125,-39.06256103515625,957.0327758789062,363.2818298339844
834.0050048828125,850.454833984375,-46.87507247924805,957.0327758789062,363.2818298339844
834.0050048828125,850.454833984375,-39.06256103515625,957.0327758789062,363.2818298339844
834.0050048828125,850.454833984375,-39.06256103515625,957.0327758789062,367.1880798339844
835.6500244140625,855.3897705078125,-39.06256103515625,957.0327758789062,367.1880798339844
829.070068359375,840.5849609375,-42.96881866455078,957.0327758789062,367.1880798339844
827.4251098632812,845.5198974609375,-39.06256103515625,957.0327758789062,367.1880798339844
827.4251098632812,850.454833984375,-42.96881866455078,949.22021484375,363.2818298339844
832.3600463867188,852.0997924804688,-39.06256103515625,968.7515258789062,367.1880798339844
837.2949829101562,832.3600463867188,-39.06256103515625,957.0327758789062,367.1880798339844
837.2949829101562,832.3600463867188,-39.06256103515625,949.22021484375,367.1880798339844
837.2949829101562,832.3600463867188,-39.06256103515625,953.12646484375,367.1880798339844
842.2299194335938,834.0050048828125,-39.06256103515625,953.12646484375,367.1880798339844
845.5198974609375,835.6500244140625,-39.06256103515625,957.0327758789062,367.1880798339844
852.0997924804688,847.1648559570312,-39.06256103515625,957.0327758789062,371.0943298339844
852.0997924804688,847.1648559570312,-42.96881866455078,960.9390258789062,367.1880798339844
852.0997924804688,847.1648559570312,-42.96881866455078,957.0327758789062,367.1880798339844
861.9697265625,835.6500244140625,-39.06256103515625,953.12646484375,367.1880798339844
861.9697265625,835.6500244140625,-39.06256103515625,953.12646484375,363.2818298339844
858.6797485351562,827.4251098632812,-39.06256103515625,953.12646484375,363.2818298339844
853.7448120117188,838.9400024414062,-42.96881866455078,953.12646484375,363.2818298339844
847.1648559570312,870.194580078125,-39.06256103515625,957.0327758789062,367.1880798339844
848.8098754882812,857.0347290039062,-39.06256103515625,949.22021484375,371.0943298339844
852.0997924804688,853.7448120117188,-42.96881866455078,953.12646484375,371.0943298339844
858.6797485351562,845.5198974609375,-46.87507247924805,953.12646484375,367.1880798339844
858.6797485351562,834.0050048828125,-46.87507247924805,953.12646484375,367.1880798339844
857.0347290039062,832.3600463867188,-46.87507247924805,957.0327758789062,367.1880798339844
861.9697265625,845.5198974609375,-46.87507247924805,957.0327758789062,367.1880798339844
852.0997924804688,832.3600463867188,-46.87507247924805,957.0327758789062,367.1880798339844
858.6797485351562,847.1648559570312,-46.87507247924805,953.12646484375,367.1880798339844
858.6797485351562,847.1648559570312,-39.06256103515625,953.12646484375,367.1880798339844
857.0347290039062,845.5198974609375,-39.06256103515625,953.12646484375,367.1880798339844
855.3897705078125,840.5849609375,-39.06256103515625,957.0327758789062,367.1880798339844
855.3897705078125,840.5849609375,-42.96881866455078,960.9390258789062,367.1880798339844
855.3897705078125,855.3897705078125,-39.06256103515625,949.22021484375,367.1880798339844
852.0997924804688,845.5198974609375,-46.87507247924805,957.0327758789062,363.2818298339844
852.0997924804688,845.5198974609375,-39.06256103515625,945.31396484375,367.1880798339844
860.32470703125,843.8749389648438,-39.06256103515625,945.31396484375,367.1880798339844
861.9697265625,847.1648559570312,-50.78133010864258,964.8452758789062,367.1880798339844
858.6797485351562,842.2299194335938,-42.96881866455078,949.22021484375,371.0943298339844
858.6797485351562,838.9400024414062,-42.96881866455078,949.22021484375,371.0943298339844
853.7448120117188,834.0050048828125,-50.78133010864258,957.0327758789062,367.1880798339844
857.0347290039062,838.9400024414062,-50.78133010864258,957.0327758789062,367.1880798339844
857.0347290039062,838.9400024414062,-46.87507247924805,957.0327758789062,367.1880798339844
855.3897705078125,832.3600463867188,-42.96881866455078,953.12646484375,367.1880798339844
853.7448120117188,832.3600463867188,-42.96881866455078,953.12646484375,371.0943298339844
853.7448120117188,832.3600463867188,-42.96881866455078,957.0327758789062,371.0943298339844
852.0997924804688,829.070068359375,-42.96881866455078,957.0327758789062,371.0943298339844
860.32470703125,843.8749389648438,-46.87507247924805,953.12646484375,371.0943298339844
860.32470703125,843.8749389648438,-46.87507247924805,953.12646484375,367.1880798339844
855.3897705078125,838.9400024414062,-46.87507247924805,960.9390258789062,371.0943298339844
857.0347290039062,842.2299194335938,-39.06256103515625,949.22021484375,367.1880798339844
853.7448120117188,848.8098754882812,-39.06256103515625,949.22021484375,367.1880798339844
860.32470703125,845.5198974609375,-39.06256103515625,957.0327758789062,371.0943298339844
860.32470703125,845.5198974609375,-39.06256103515625,960.9390258789062,371.0943298339844
860.32470703125,845.5198974609375,-42.96881866455078,957.0327758789062,367.1880798339844
858.6797485351562,845.5198974609375,-42.96881866455078,957.0327758789062,367.1880798339844
858.6797485351562,848.8098754882812,-50.78133010864258,957.0327758789062,367.1880798339844
858.6797485351562,848.8098754882812,-50.78133010864258,953.12646484375,363.2818298339844
855.3897705078125,837.2949829101562,-50.78133010864258,953.12646484375,367.1880798339844
853.7448120117188,837.2949829101562,-50.78133010864258,953.12646484375,367.1880798339844
850.454833984375,835.6500244140625,-46.87507247924805,953.12646484375,371.0943298339844
852.0997924804688,837.2949829101562,-46.87507247924805,953.12646484375,371.0943298339844
855.3897705078125,834.0050048828125,-46.87507247924805,957.0327758789062,367.1880798339844
858.6797485351562,848.8098754882812,-50.78133010864258,953.12646484375,367.1880798339844
857.0347290039062,850.454833984375,-42.96881866455078,964.8452758789062,371.0943298339844
857.0347290039062,850.454833984375,-42.96881866455078,960.9390258789062,371.0943298339844
868.5496215820312,847.1648559570312,-42.96881866455078,960.9390258789062,371.0943298339844
866.9046630859375,835.6500244140625,-42.96881866455078,953.12646484375,371.0943298339844
866.9046630859375,835.6500244140625,-46.87507247924805,949.22021484375,367.1880798339844
865.2596435546875,838.9400024414062,-46.87507247924805,949.22021484375,367.1880798339844
857.0347290039062,825.7801513671875,-42.96881866455078,960.9390258789062,371.0943298339844
860.32470703125,837.2949829101562,-42.96881866455078,960.9390258789062,371.0943298339844
857.0347290039062,840.5849609375,-50.78133010864258,957.0327758789062,367.1880798339844
866.9046630859375,835.6500244140625,-50.78133010864258,953.12646484375,367.1880798339844
871.839599609375,830.715087890625,-50.78133010864258,953.12646484375,367.1880798339844
871.839599609375,830.715087890625,-46.87507247924805,957.0327758789062,367.1880798339844
866.9046630859375,835.6500244140625,-46.87507247924805,957.0327758789062,367.1880798339844
863.6146850585938,843.8749389648438,-46.87507247924805,953.12646484375,371.0943298339844
863.6146850585938,843.8749389648438,-50.78133010864258,953.12646484375,367.1880798339844
865.2596435546875,842.2299194335938,-50.78133010864258,953.12646484375,367.1880798339844
860.32470703125,845.5198974609375,-42.96881866455078,953.12646484375,371.0943298339844
855.3897705078125,847.1648559570312,-46.87507247924805,957.0327758789062,367.1880798339844
857.0347290039062,842.2299194335938,-42.96881866455078,960.9390258789062,371.0943298339844
857.0347290039062,842.2299194335938,-46.87507247924805,964.8452758789062,371.0943298339844
850.454833984375,835.6500244140625,-46.87507247924805,964.8452758789062,371.0943298339844
847.1648559570312,838.9400024414062,-46.87507247924805,953.12646484375,367.1880798339844
845.5198974609375,855.3897705078125,-50.78133010864258,953.12646484375,367.1880798339844
848.8098754882812,858.6797485351562,-46.87507247924805,957.0327758789062,371.0943298339844
855.3897705078125,855.3897705078125,-46.87507247924805,957.0327758789062,371.0943298339844
855.3897705078125,855.3897705078125,-50.78133010864258,957.0327758789062,367.1880798339844
855.3897705078125,855.3897705078125,-50.78133010864258,953.12646484375,367.1880798339844
852.0997924804688,847.1648559570312,-50.78133010864258,953.12646484375,367.1880798339844
853.7448120117188,853.7448120117188,-46.87507247924805,953.12646484375,367.1880798339844
853.7448120117188,853.7448120117188,-46.87507247924805,957.0327758789062,371.0943298339844
850.454833984375,857.0347290039062,-46.87507247924805,957.0327758789062,371.0943298339844
850.454833984375,845.5198974609375,-46.87507247924805,957.0327758789062,371.0943298339844
857.0347290039062,853.7448120117188,-46.87507247924805,960.9390258789062,367.1880798339844
837.2949829101562,868.5496215820312,-39.06256103515625,960.9390258789062,371.0943298339844
842.2299194335938,861.9697265625,-39.06256103515625,960.9390258789062,371.0943298339844
845.5198974609375,847.1648559570312,-39.06256103515625,953.12646484375,371.0943298339844
847.1648559570312,840.5849609375,-46.87507247924805,953.12646484375,367.1880798339844
853.7448120117188,858.6797485351562,-46.87507247924805,953.12646484375,367.1880798339844
855.3897705078125,855.3897705078125,-46.87507247924805,953.12646484375,367.1880798339844
847.1648559570312,850.454833984375,-42.96881866455078,953.12646484375,371.0943298339844
847.1648559570312,850.454833984375,-42.96881866455078,957.0327758789062,371.0943298339844
850.454833984375,848.8098754882812,-42.96881866455078,957.0327758789062,371.0943298339844
843.8749389648438,838.9400024414062,-42.96881866455078,957.0327758789062,371.0943298339844
840.5849609375,842.2299194335938,-42.96881866455078,953.12646484375,371.0943298339844
840.5849609375,838.9400024414062,-42.96881866455078,957.0327758789062,367.1880798339844
840.5849609375,838.9400024414062,-46.87507247924805,957.0327758789062,367.1880798339844
853.7448120117188,840.5849609375,-46.87507247924805,953.12646484375,367.1880798339844
847.1648559570312,842.2299194335938,-42.96881866455078,953.12646484375,371.0943298339844
847.1648559570312,842.2299194335938,-42.96881866455078,953.12646484375,367.1880798339844
848.8098754882812,848.8098754882812,-42.96881866455078,953.12646484375,367.1880798339844
843.8749389648438,842.2299194335938,-46.87507247924805,953.12646484375,371.0943298339844
843.8749389648438,834.0050048828125,-39.06256103515625,953.12646484375,371.0943298339844
843.8749389648438,834.0050048828125,-46.87507247924805,960.9390258789062,367.1880798339844
843.8749389648438,834.0050048828125,-46.87507247924805,957.0327758789062,367.1880798339844
845.5198974609375,842.2299194335938,-46.87507247924805,957.0327758789062,367.1880798339844
843.8749389648438,873.4845581054688,-42.96881866455078,953.12646484375,371.0943298339844
840.5849609375,852.0997924804688,-39.06256103515625,953.12646484375,371.0943298339844
861.9697265625,848.8098754882812,-42.96881866455078,957.0327758789062,371.0943298339844
861.9697265625,848.8098754882812,-42.96881866455078,953.12646484375,367.1880798339844
857.0347290039062,820.84521484375,-42.96881866455078,953.12646484375,367.1880798339844
852.0997924804688,781.3656616210938,-42.96881866455078,953.12646484375,371.0943298339844
855.3897705078125,791.2355346679688,-39.06256103515625,960.9390258789062,367.1880798339844
853.7448120117188,787.945556640625,-39.06256103515625,949.22021484375,371.0943298339844
848.8098754882812,819.2001953125,-42.96881866455078,949.22021484375,371.0943298339844
847.1648559570312,827.4251098632812,-50.78133010864258,953.12646484375,371.0943298339844
847.1648559570312,827.4251098632812,-46.87507247924805,953.12646484375,371.0943298339844
850.454833984375,835.6500244140625,-46.87507247924805,957.0327758789062,371.0943298339844
848.8098754882812,835.6500244140625,-42.96881866455078,953.12646484375,375.0005798339844
845.5198974609375,834.0050048828125,-39.06256103515625,953.12646484375,371.0943298339844
845.5198974609375,834.0050048828125,-42.96881866455078,953.12646484375,367.1880798339844
845.5198974609375,834.0050048828125,-42.96881866455078,953.12646484375,371.0943298339844
845.5198974609375,845.5198974609375,-39.06256103515625,957.0327758789062,371.0943298339844
848.8098754882812,858.6797485351562,-39.06256103515625,953.12646484375,367.1880798339844
848.8098754882812,858.6797485351562,-42.96881866455078,957.0327758789062,367.1880798339844
850.454833984375,857.0347290039062,-50.78133010864258,957.0327758789062,367.1880798339844
845.5198974609375,855.3897705078125,-42.96881866455078,968.7515258789062,371.0943298339844
842.2299194335938,861.9697265625,-42.96881866455078,957.0327758789062,371.0943298339844
842.2299194335938,860.32470703125,-42.96881866455078,960.9390258789062,371.0943298339844
847.1648559570312,866.9046630859375,-42.96881866455078,957.0327758789062,371.0943298339844
843.8749389648438,855.3897705078125,-46.87507247924805,953.12646484375,371.0943298339844
848.8098754882812,868.5496215820312,-46.87507247924805,957.0327758789062,371.0943298339844
848.8098754882812,865.2596435546875,-46.87507247924805,957.0327758789062,371.0943298339844
843.8749389648438,857.0347290039062,-42.96881866455078,953.12646484375,371.0943298339844
845.5198974609375,852.0997924804688,-42.96881866455078,953.12646484375,371.0943298339844
845.5198974609375,852.0997924804688,-39.06256103515625,957.0327758789062,371.0943298339844
842.2299194335938,850.454833984375,-42.96881866455078,957.0327758789062,367.1880798339844
843.8749389648438,838.9400024414062,-46.87507247924805,949.22021484375,367.1880798339844
824.1351318359375,855.3897705078125,-42.96881866455078,953.12646484375,367.1880798339844
824.1351318359375,855.3897705078125,-39.06256103515625,953.12646484375,371.0943298339844
834.0050048828125,852.0997924804688,-42.96881866455078,957.0327758789062,371.0943298339844
834.0050048828125,848.8098754882812,-46.87507247924805,953.12646484375,375.0005798339844
834.0050048828125,848.8098754882812,-54.687583923339844,957.0327758789062,371.0943298339844
834.0050048828125,848.8098754882812,-50.78133010864258,953.12646484375,375.0005798339844
837.2949829101562,843.8749389648438,-50.78133010864258,953.12646484375,375.0005798339844
838.9400024414062,845.5198974609375,-50.78133010864258,953.12646484375,375.0005798339844
838.9400024414062,845.5198974609375,-46.87507247924805,953.12646484375,375.0005798339844
837.2949829101562,834.0050048828125,-46.87507247924805,953.12646484375,371.0943298339844
843.8749389648438,835.6500244140625,-39.06256103515625,953.12646484375,371.0943298339844
843.8749389648438,835.6500244140625,-42.96881866455078,953.12646484375,367.1880798339844
840.5849609375,837.2949829101562,-42.96881866455078,949.22021484375,367.1880798339844
843.8749389648438,842.2299194335938,-42.96881866455078,953.12646484375,371.0943298339844
845.5198974609375,845.5198974609375,-39.06256103515625,957.0327758789062,375.0005798339844
845.5198974609375,853.7448120117188,-50.78133010864258,957.0327758789062,371.0943298339844
845.5198974609375,853.7448120117188,-46.87507247924805,953.12646484375,375.0005798339844
843.8749389648438,847.1648559570312,-46.87507247924805,953.12646484375,375.0005798339844
845.5198974609375,838.9400024414062,-46.87507247924805,953.12646484375,375.0005798339844
845.5198974609375,853.7448120117188,-42.96881866455078,953.12646484375,375.0005798339844
847.1648559570312,848.8098754882812,-42.96881866455078,957.0327758789062,367.1880798339844
847.1648559570312,848.8098754882812,-46.87507247924805,957.0327758789062,367.1880798339844
847.1648559570312,848.8098754882812,-42.96881866455078,949.22021484375,367.1880798339844
837.2949829101562,843.8749389648438,-42.96881866455078,949.22021484375,367.1880798339844
837.2949829101562,843.8749389648438,-39.06256103515625,964.8452758789062,371.0943298339844
838.9400024414062,858.6797485351562,-39.06256103515625,953.12646484375,367.1880798339844
837.2949829101562,853.7448120117188,-39.06256103515625,953.12646484375,371.0943298339844
834.0050048828125,852.0997924804688,-39.06256103515625,953.12646484375,375.0005798339844
838.9400024414062,853.7448120117188,-42.96881866455078,957.0327758789062,371.0943298339844
840.5849609375,865.2596435546875,-46.87507247924805,953.12646484375,371.0943298339844
837.2949829101562,852.0997924804688,-46.87507247924805,953.12646484375,375.0005798339844
837.2949829101562,852.0997924804688,-42.96881866455078,953.12646484375,375.0005798339844
850.454833984375,850.454833984375,-42.96881866455078,957.0327758789062,375.0005798339844
847.1648559570312,838.9400024414062,-39.06256103515625,953.12646484375,371.0943298339844
845.5198974609375,830.715087890625,-39.06256103515625,953.12646484375,371.0943298339844
843.8749389648438,848.8098754882812,-42.96881866455078,957.0327758789062,367.1880798339844
843.8749389648438,848.8098754882812,-46.87507247924805,953.12646484375,367.1880798339844
832.3600463867188,847.1648559570312,-39.06256103515625,964.8452758789062,367.1880798339844
834.0050048828125,843.8749389648438,-46.87507247924805,953.12646484375,363.2818298339844
835.6500244140625,848.8098754882812,-39.06256103515625,957.0327758789062,371.0943298339844
835.6500244140625,848.8098754882812,-42.96881866455078,953.12646484375,371.0943298339844
832.3600463867188,845.5198974609375,-42.96881866455078,953.12646484375,371.0943298339844
832.3600463867188,852.0997924804688,-42.96881866455078,957.0327758789062,371.0943298339844
835.6500244140625,860.32470703125,-42.96881866455078,953.12646484375,367.1880798339844
840.5849609375,848.8098754882812,-46.87507247924805,953.12646484375,363.2818298339844
832.3600463867188,835.6500244140625,-46.87507247924805,953.12646484375,363.2818298339844
834.0050048828125,843.8749389648438,-39.06256103515625,964.8452758789062,371.0943298339844
834.0050048828125,843.8749389648438,-42.96881866455078,960.9390258789062,367.1880798339844
838.9400024414062,855.3897705078125,-42.96881866455078,960.9390258789062,367.1880798339844
829.070068359375,838.9400024414062,-42.96881866455078,949.22021484375,367.1880798339844
829.070068359375,838.9400024414062,-39.06256103515625,953.12646484375,367.1880798339844
829.070068359375,838.9400024414062,-42.96881866455078,953.12646484375,367.1880798339844
834.0050048828125,847.1648559570312,-46.87507247924805,953.12646484375,367.1880798339844
825.7801513671875,858.6797485351562,-42.96881866455078,957.0327758789062,371.0943298339844
820.84521484375,863.6146850585938,-42.96881866455078,957.0327758789062,371.0943298339844
825.7801513671875,845.5198974609375,-39.06256103515625,953.12646484375,371.0943298339844
825.7801513671875,845.5198974609375,-42.96881866455078,953.12646484375,371.0943298339844
825.7801513671875,845.5198974609375,-46.87507247924805,953.12646484375,371.0943298339844
827.4251098632812,853.7448120117188,-46.87507247924805,957.0327758789062,371.0943298339844
827.4251098632812,861.9697265625,-42.96881866455078,957.0327758789062,375.0005798339844
840.5849609375,855.3897705078125,-42.96881866455078,960.9390258789062,371.0943298339844
863.6146850585938,824.1351318359375,-42.96881866455078,957.0327758789062,371.0943298339844
858.6797485351562,829.070068359375,-46.87507247924805,953.12646484375,371.0943298339844
858.6797485351562,829.070068359375,-42.96881866455078,953.12646484375,367.1880798339844
857.0347290039062,842.2299194335938,-42.96881866455078,953.12646484375,367.1880798339844
832.3600463867188,852.0997924804688,-39.06256103515625,953.12646484375,367.1880798339844
829.070068359375,850.454833984375,-39.06256103515625,953.12646484375,367.1880798339844
834.0050048828125,857.0347290039062,-42.96881866455078,957.0327758789062,371.0943298339844
834.0050048828125,857.0347290039062,-42.96881866455078,949.22021484375,367.1880798339844
829.070068359375,850.454833984375,-42.96881866455078,953.12646484375,367.1880798339844
835.6500244140625,855.3897705078125,-39.06256103515625,957.0327758789062,371.0943298339844
835.6500244140625,853.7448120117188,-46.87507247924805,953.12646484375,371.0943298339844
835.6500244140625,853.7448120117188,-42.96881866455078,957.0327758789062,371.0943298339844
840.5849609375,858.6797485351562,-42.96881866455078,957.0327758789062,371.0943298339844
834.0050048828125,842.2299194335938,-46.87507247924805,953.12646484375,367.1880798339844
837.2949829101562,853.7448120117188,-42.96881866455078,957.0327758789062,371.0943298339844
837.2949829101562,855.3897705078125,-42.96881866455078,957.0327758789062,371.0943298339844
832.3600463867188,852.0997924804688,-39.06256103515625,953.12646484375,371.0943298339844
832.3600463867188,852.0997924804688,-46.87507247924805,957.0327758789062,367.1880798339844
832.3600463867188,852.0997924804688,-54.687583923339844,960.9390258789062,363.2818298339844
837.2949829101562,860.32470703125,-54.687583923339844,960.9390258789062,363.2818298339844
837.2949829101562,860.32470703125,-46.87507247924805,953.12646484375,367.1880798339844
837.2949829101562,860.32470703125,-42.96881866455078,968.7515258789062,367.1880798339844
835.6500244140625,848.8098754882812,-42.96881866455078,968.7515258789062,367.1880798339844
834.0050048828125,860.32470703125,-39.06256103515625,953.12646484375,363.2818298339844
832.3600463867188,853.7448120117188,-46.87507247924805,949.22021484375,363.2818298339844
832.3600463867188,853.7448120117188,-42.96881866455078,953.12646484375,363.2818298339844
832.3600463867188,853.7448120117188,-42.96881866455078,957.0327758789062,363.2818298339844
829.070068359375,843.8749389648438,-42.96881866455078,960.9390258789062,363.2818298339844
830.715087890625,858.6797485351562,-42.96881866455078,960.9390258789062,363.2818298339844
829.070068359375,855.3897705078125,-46.87507247924805,957.0327758789062,363.2818298339844
829.070068359375,855.3897705078125,-50.78133010864258,957.0327758789062,363.2818298339844
842.2299194335938,848.8098754882812,-50.78133010864258,957.0327758789062,363.2818298339844
840.5849609375,834.0050048828125,-42.96881866455078,957.0327758789062,363.2818298339844
842.2299194335938,840.5849609375,-46.87507247924805,953.12646484375,363.2818298339844
842.2299194335938,835.6500244140625,-46.87507247924805,957.0327758789062,363.2818298339844
848.8098754882812,847.1648559570312,-42.96881866455078,953.12646484375,363.2818298339844
848.8098754882812,847.1648559570312,-39.06256103515625,953.12646484375,363.2818298339844
850.454833984375,847.1648559570312,-42.96881866455078,957.0327758789062,363.2818298339844
843.8749389648438,845.5198974609375,-42.96881866455078,953.12646484375,363.2818298339844
829.070068359375,843.8749389648438,-50.78133010864258,953.12646484375,363.2818298339844
829.070068359375,843.8749389648438,-46.87507247924805,953.12646484375,367.1880798339844
829.070068359375,843.8749389648438,-42.96881866455078,960.9390258789062,367.1880798339844
824.1351318359375,863.6146850585938,-39.06256103515625,953.12646484375,371.0943298339844
824.1351318359375,863.6146850585938,-42.96881866455078,960.9390258789062,367.1880798339844
834.0050048828125,863.6146850585938,-42.96881866455078,960.9390258789062,367.1880798339844
837.2949829101562,853.7448120117188,-46.87507247924805,957.0327758789062,367.1880798339844
832.3600463867188,848.8098754882812,-46.87507247924805,957.0327758789062,367.1880798339844
835.6500244140625,847.1648559570312,-42.96881866455078,953.12646484375,367.1880798339844
835.6500244140625,847.1648559570312,-39.06256103515625,953.12646484375,371.0943298339844
835.6500244140625,848.8098754882812,-39.06256103515625,953.12646484375,371.0943298339844
838.9400024414062,842.2299194335938,-42.96881866455078,953.12646484375,363.2818298339844
863.6146850585938,829.070068359375,-42.96881866455078,953.12646484375,367.1880798339844
850.454833984375,837.2949829101562,-42.96881866455078,957.0327758789062,367.1880798339844
850.454833984375,837.2949829101562,-46.87507247924805,960.9390258789062,371.0943298339844
850.454833984375,837.2949829101562,-42.96881866455078,953.12646484375,367.1880798339844
847.1648559570312,835.6500244140625,-42.96881866455078,953.12646484375,367.1880798339844
845.5198974609375,837.2949829101562,-42.96881866455078,953.12646484375,367.1880798339844
848.8098754882812,830.715087890625,-46.87507247924805,957.0327758789062,363.2818298339844
848.8098754882812,830.715087890625,-42.96881866455078,953.12646484375,367.1880798339844
840.5849609375,830.715087890625,-42.96881866455078,953.12646484375,367.1880798339844
843.8749389648438,837.2949829101562,-42.96881866455078,953.12646484375,367.1880798339844
843.8749389648438,837.2949829101562,-46.87507247924805,957.0327758789062,367.1880798339844
843.8749389648438,837.2949829101562,-46.87507247924805,957.0327758789062,363.2818298339844
838.9400024414062,843.8749389648438,-46.87507247924805,957.0327758789062,363.2818298339844
835.6500244140625,838.9400024414062,-42.96881866455078,957.0327758789062,363.2818298339844
835.6500244140625,838.9400024414062,-42.96881866455078,953.12646484375,363.2818298339844
842.2299194335938,843.8749389648438,-42.96881866455078,953.12646484375,363.2818298339844
840.5849609375,850.454833984375,-46.87507247924805,949.22021484375,363.2818298339844
832.3600463867188,835.6500244140625,-46.87507247924805,964.8452758789062,367.1880798339844
834.0050048828125,835.6500244140625,-46.87507247924805,953.12646484375,367.1880798339844
834.0050048828125,835.6500244140625,-50.78133010864258,953.12646484375,367.1880798339844
834.0050048828125,834.0050048828125,-50.78133010864258,957.0327758789062,367.1880798339844
837.2949829101562,852.0997924804688,-46.87507247924805,957.0327758789062,367.1880798339844
838.9400024414062,843.8749389648438,-42.96881866455078,953.12646484375,367.1880798339844
842.2299194335938,853.7448120117188,-42.96881866455078,953.12646484375,363.2818298339844
845.5198974609375,855.3897705078125,-42.96881866455078,957.0327758789062,367.1880798339844
850.454833984375,850.454833984375,-42.96881866455078,957.0327758789062,363.2818298339844
847.1648559570312,850.454833984375,-46.87507247924805,957.0327758789062,363.2818298339844
847.1648559570312,850.454833984375,-39.06256103515625,949.22021484375,367.1880798339844
842.2299194335938,852.0997924804688,-46.87507247924805,953.12646484375,363.2818298339844
843.8749389648438,840.5849609375,-46.87507247924805,960.9390258789062,367.1880798339844
842.2299194335938,834.0050048828125,-46.87507247924805,957.0327758789062,367.1880798339844
843.8749389648438,837.2949829101562,-39.06256103515625,953.12646484375,371.0943298339844
843.8749389648438,845.5198974609375,-46.87507247924805,957.0327758789062,367.1880798339844
845.5198974609375,837.2949829101562,-46.87507247924805,953.12646484375,367.1880798339844
840.5849609375,843.8749389648438,-50.78133010864258,957.0327758789062,367.1880798339844
840.5849609375,845.5198974609375,-39.06256103515625,953.12646484375,367.1880798339844
842.2299194335938,845.5198974609375,-39.06256103515625,953.12646484375,367.1880798339844
847.1648559570312,848.8098754882812,-50.78133010864258,957.0327758789062,363.2818298339844
843.8749389648438,840.5849609375,-46.87507247924805,953.12646484375,367.1880798339844
845.5198974609375,850.454833984375,-42.96881866455078,968.7515258789062,367.1880798339844
842.2299194335938,840.5849609375,-50.78133010864258,953.12646484375,363.2818298339844
840.5849609375,848.8098754882812,-50.78133010864258,953.12646484375,371.0943298339844
840.5849609375,848.8098754882812,-54.687583923339844,957.0327758789062,371.0943298339844
840.5849609375,848.8098754882812,-50.78133010864258,957.0327758789062,371.0943298339844
845.5198974609375,843.8749389648438,-50.78133010864258,957.0327758789062,371.0943298339844
838.9400024414062,840.5849609375,-50.78133010864258,957.0327758789062,367.1880798339844
852.0997924804688,860.32470703125,-42.96881866455078,964.8452758789062,367.1880798339844
852.0997924804688,860.32470703125,-46.87507247924805,960.9390258789062,363.2818298339844
855.3897705078125,853.7448120117188,-46.87507247924805,960.9390258789062,363.2818298339844
848.8098754882812,840.5849609375,-42.96881866455078,953.12646484375,367.1880798339844
848.8098754882812,840.5849609375,-46.87507247924805,953.12646484375,363.2818298339844
843.8749389648438,847.1648559570312,-50.78133010864258,953.12646484375,363.2818298339844
842.2299194335938,843.8749389648438,-42.96881866455078,953.12646484375,367.1880798339844
842.2299194335938,843.8749389648438,-42.96881866455078,960.9390258789062,367.1880798339844
842.2299194335938,843.8749389648438,-42.96881866455078,957.0327758789062,367.1880798339844
842.2299194335938,847.1648559570312,-42.96881866455078,957.0327758789062,367.1880798339844
840.5849609375,847.1648559570312,-50.78133010864258,957.0327758789062,367.1880798339844
843.8749389648438,853.7448120117188,-46.87507247924805,957.0327758789062,371.0943298339844
843.8749389648438,850.454833984375,-46.87507247924805,957.0327758789062,363.2818298339844
843.8749389648438,850.454833984375,-46.87507247924805,953.12646484375,367.1880798339844
835.6500244140625,848.8098754882812,-46.87507247924805,953.12646484375,363.2818298339844
835.6500244140625,848.8098754882812,-39.06256103515625,953.12646484375,367.1880798339844
843.8749389648438,855.3897705078125,-54.687583923339844,960.9390258789062,363.2818298339844
845.5198974609375,860.32470703125,-39.06256103515625,953.12646484375,367.1880798339844
840.5849609375,852.0997924804688,-46.87507247924805,964.8452758789062,363.2818298339844
847.1648559570312,843.8749389648438,-46.87507247924805,953.12646484375,363.2818298339844
842.2299194335938,852.0997924804688,-46.87507247924805,953.12646484375,367.1880798339844
835.6500244140625,848.8098754882812,-42.96881866455078,964.8452758789062,367.1880798339844
837.2949829101562,861.9697265625,-46.87507247924805,953.12646484375,367.1880798339844
837.2949829101562,861.9697265625,-50.78133010864258,960.9390258789062,367.1880798339844
842.2299194335938,865.2596435546875,-50.78133010864258,957.0327758789062,367.1880798339844
837.2949829101562,949.1536865234376,-46.87507247924805,953.12646484375,367.1880798339844
837.2949829101562,949.1536865234376,-42.96881866455078,953.12646484375,363.2818298339844
837.2949829101562,949.1536865234376,-46.87507247924805,953.12646484375,363.2818298339844
840.5849609375,914.6090698242188,-46.87507247924805,953.12646484375,363.2818298339844
830.715087890625,898.1592407226562,-46.87507247924805,957.0327758789062,363.2818298339844
834.0050048828125,888.2893676757812,-50.78133010864258,957.0327758789062,367.1880798339844
842.2299194335938,891.579345703125,-50.78133010864258,957.0327758789062,367.1880798339844
843.8749389648438,871.839599609375,-42.96881866455078,953.12646484375,367.1880798339844
843.8749389648438,870.194580078125,-50.78133010864258,957.0327758789062,363.2818298339844
843.8749389648438,870.194580078125,-50.78133010864258,953.12646484375,359.37554931640625
843.8749389648438,870.194580078125,-39.06256103515625,949.22021484375,367.1880798339844
840.5849609375,870.194580078125,-42.96881866455078,964.8452758789062,367.1880798339844
842.2299194335938,870.194580078125,-42.96881866455078,964.8452758789062,367.1880798339844
837.2949829101562,815.9102783203125,-46.87507247924805,953.12646484375,367.1880798339844
842.2299194335938,815.9102783203125,-50.78133010864258,953.12646484375,367.1880798339844
868.5496215820312,860.32470703125,-46.87507247924805,953.12646484375,367.1880798339844
830.715087890625,876.7745361328125,-46.87507247924805,957.0327758789062,367.1880798339844
830.715087890625,876.7745361328125,-50.78133010864258,957.0327758789062,367.1880798339844
830.715087890625,876.7745361328125,-50.78133010864258,957.0327758789062,363.2818298339844
827.4251098632812,896.5142822265625,-50.78133010864258,957.0327758789062,363.2818298339844
827.4251098632812,863.6146850585938,-46.87507247924805,957.0327758789062,363.2818298339844
827.4251098632812,863.6146850585938,-46.87507247924805,957.0327758789062,367.1880798339844
822.4901733398438,824.1351318359375,-46.87507247924805,957.0327758789062,367.1880798339844
830.715087890625,847.1648559570312,-50.78133010864258,957.0327758789062,363.2818298339844
830.715087890625,847.1648559570312,-54.687583923339844,957.0327758789062,359.37554931640625
830.715087890625,857.0347290039062,-50.78133010864258,957.0327758789062,367.1880798339844
832.3600463867188,863.6146850585938,-54.687583923339844,957.0327758789062,363.2818298339844
837.2949829101562,871.839599609375,-58.59384155273438,960.9390258789062,363.2818298339844
840.5849609375,886.6444091796875,-58.59384155273438,964.8452758789062,351.56304931640625
840.5849609375,886.6444091796875,-62.5000991821289,964.8452758789062,347.65679931640625
838.9400024414062,871.839599609375,-62.5000991821289,964.8452758789062,347.65679931640625
838.9400024414062,871.839599609375,-70.31260681152344,968.7515258789062,335.9380187988281
838.9400024414062,871.839599609375,-74.21886444091797,972.6577758789062,332.0317687988281
842.2299194335938,835.6500244140625,-78.1251220703125,972.6577758789062,328.1255187988281
840.5849609375,827.4251098632812,-74.21886444091797,976.5640258789062,324.2192687988281
840.5849609375,827.4251098632812,-74.21886444091797,968.7515258789062,320.31298828125
842.2299194335938,865.2596435546875,-74.21886444091797,968.7515258789062,320.31298828125
845.5198974609375,871.839599609375,-74.21886444091797,988.2827758789062,304.68798828125
835.6500244140625,884.9994506835938,-78.1251220703125,976.5640258789062,273.4379272460937
835.6500244140625,884.9994506835938,-78.1251220703125,980.4702758789062,269.5316772460937
835.6500244140625,884.9994506835938,-82.03137969970703,984.3765258789062,261.71914672851557
832.3600463867188,802.7504272460938,-82.03137969970703,984.3765258789062,261.71914672851557
835.6500244140625,842.2299194335938,-70.31260681152344,1000.0015869140624,257.81289672851557
840.5849609375,898.1592407226562,-54.687583923339844,1003.9078369140624,250.0003967285156
847.1648559570312,911.319091796875,-74.21886444091797,996.0953369140624,203.1253204345703
847.1648559570312,911.319091796875,-70.31260681152344,992.1890258789062,199.21905517578125
847.1648559570312,911.319091796875,-70.31260681152344,1000.0015869140624,183.5940399169922
843.8749389648438,871.839599609375,-74.21886444091797,1003.9078369140624,171.87527465820312
843.8749389648438,884.9994506835938,-74.21886444091797,1003.9078369140624,171.87527465820312
843.8749389648438,901.44921875,-74.21886444091797,1000.0015869140624,152.343994140625
852.0997924804688,901.44921875,-74.21886444091797,1007.8140869140624,140.62521362304688
852.0997924804688,901.44921875,-74.21886444091797,1011.7203369140624,132.81271362304688
850.454833984375,832.3600463867188,-58.59384155273438,996.0953369140624,132.81271362304688
845.5198974609375,858.6797485351562,-50.78133010864258,1015.6265869140624,128.90644836425778
845.5198974609375,858.6797485351562,-66.40635681152344,1015.6265869140624,121.09394073486328
848.8098754882812,837.2949829101562,-58.59384155273438,1019.5328369140624,121.09394073486328
843.8749389648438,903.09423828125,-62.5000991821289,1019.5328369140624,117.18768310546876
842.2299194335938,899.8042602539062,-70.31260681152344,1015.6265869140624,113.28142547607422
837.2949829101562,847.1648559570312,-58.59384155273438,1011.7203369140624,121.09394073486328
840.5849609375,926.1239624023438,-58.59384155273438,1011.7203369140624,121.09394073486328
842.2299194335938,873.4845581054688,-62.5000991821289,1015.6265869140624,117.18768310546876
837.2949829101562,827.4251098632812,-62.5000991821289,1015.6265869140624,117.18768310546876
838.9400024414062,827.4251098632812,-62.5000991821289,1015.6265869140624,109.37516784667969
838.9400024414062,827.4251098632812,-58.59384155273438,1007.8140869140624,117.18768310546876
835.6500244140625,858.6797485351562,-58.59384155273438,1007.8140869140624,117.18768310546876
837.2949829101562,880.064453125,-58.59384155273438,1007.8140869140624,117.18768310546876
835.6500244140625,863.6146850585938,-62.5000991821289,1019.5328369140624,117.18768310546876
837.2949829101562,899.8042602539062,-58.59384155273438,1011.7203369140624,125.0001983642578
837.2949829101562,876.7745361328125,-62.5000991821289,1019.5328369140624,121.09394073486328
837.2949829101562,876.7745361328125,-54.687583923339844,1019.5328369140624,121.09394073486328
830.715087890625,778.07568359375,-54.687583923339844,1019.5328369140624,121.09394073486328
830.715087890625,881.70947265625,-62.5000991821289,1011.7203369140624,117.18768310546876
830.715087890625,868.5496215820312,-62.5000991821289,1011.7203369140624,121.09394073486328
834.0050048828125,868.5496215820312,-54.687583923339844,1019.5328369140624,121.09394073486328
835.6500244140625,944.2186889648438,-50.78133010864258,1015.6265869140624,125.0001983642578
834.0050048828125,838.9400024414062,-39.06256103515625,1019.5328369140624,128.90644836425778
834.0050048828125,838.9400024414062,-39.06256103515625,1015.6265869140624,128.90644836425778
832.3600463867188,911.319091796875,-50.78133010864258,1015.6265869140624,132.81271362304688
832.3600463867188,911.319091796875,-50.78133010864258,1019.5328369140624,128.90644836425778
832.3600463867188,904.7391967773438,-54.687583923339844,1019.5328369140624,128.90644836425778
835.6500244140625,934.3488159179688,-54.687583923339844,1015.6265869140624,132.81271362304688
834.0050048828125,881.70947265625,-54.687583923339844,1015.6265869140624,132.81271362304688
835.6500244140625,881.70947265625,-62.5000991821289,1015.6265869140624,132.81271362304688
835.6500244140625,886.6444091796875,-54.687583923339844,1007.8140869140624,136.71896362304688
834.0050048828125,832.3600463867188,-46.87507247924805,1015.6265869140624,144.53147888183594
835.6500244140625,857.0347290039062,-46.87507247924805,1019.5328369140624,144.53147888183594
835.6500244140625,857.0347290039062,-50.78133010864258,1015.6265869140624,144.53147888183594
834.0050048828125,830.715087890625,-50.78133010864258,1015.6265869140624,144.53147888183594
832.3600463867188,909.6741333007812,-58.59384155273438,1015.6265869140624,140.62521362304688
832.3600463867188,909.6741333007812,-58.59384155273438,1015.6265869140624,136.71896362304688
834.0050048828125,865.2596435546875,-62.5000991821289,1015.6265869140624,132.81271362304688
834.0050048828125,865.2596435546875,-58.59384155273438,1015.6265869140624,132.81271362304688
838.9400024414062,884.9994506835938,-50.78133010864258,1015.6265869140624,136.71896362304688
838.9400024414062,871.839599609375,-46.87507247924805,1019.5328369140624,132.81271362304688
838.9400024414062,871.839599609375,-46.87507247924805,1015.6265869140624,132.81271362304688
838.9400024414062,871.839599609375,-50.78133010864258,1015.6265869140624,128.90644836425778
840.5849609375,848.8098754882812,-50.78133010864258,1015.6265869140624,128.90644836425778
842.2299194335938,868.5496215820312,-50.78133010864258,1015.6265869140624,132.81271362304688
840.5849609375,763.2708740234375,-54.687583923339844,1015.6265869140624,128.90644836425778
848.8098754882812,815.9102783203125,-50.78133010864258,1015.6265869140624,125.0001983642578
848.8098754882812,815.9102783203125,-50.78133010864258,1011.7203369140624,125.0001983642578
843.8749389648438,842.2299194335938,-50.78133010864258,1011.7203369140624,125.0001983642578
847.1648559570312,894.8693237304688,-50.78133010864258,1011.7203369140624,125.0001983642578
843.8749389648438,865.2596435546875,-50.78133010864258,1011.7203369140624,125.0001983642578
843.8749389648438,865.2596435546875,-54.687583923339844,1011.7203369140624,121.09394073486328
843.8749389648438,865.2596435546875,-54.687583923339844,1015.6265869140624,125.0001983642578
842.2299194335938,812.6203002929688,-54.687583923339844,1015.6265869140624,125.0001983642578
843.8749389648438,812.6203002929688,-58.59384155273438,1015.6265869140624,121.09394073486328
843.8749389648438,812.6203002929688,-50.78133010864258,1015.6265869140624,125.0001983642578
842.2299194335938,812.6203002929688,-50.78133010864258,1015.6265869140624,125.0001983642578
843.8749389648438,865.2596435546875,-46.87507247924805,1019.5328369140624,125.0001983642578
843.8749389648438,865.2596435546875,-50.78133010864258,1015.6265869140624,125.0001983642578
842.2299194335938,837.2949829101562,-50.78133010864258,1015.6265869140624,125.0001983642578
842.2299194335938,837.2949829101562,-50.78133010864258,1019.5328369140624,125.0001983642578
845.5198974609375,876.7745361328125,-50.78133010864258,1019.5328369140624,125.0001983642578
843.8749389648438,873.4845581054688,-46.87507247924805,1015.6265869140624,125.0001983642578
847.1648559570312,881.70947265625,-42.96881866455078,1019.5328369140624,128.90644836425778
838.9400024414062,884.9994506835938,-42.96881866455078,1011.7203369140624,128.90644836425778
838.9400024414062,884.9994506835938,-42.96881866455078,1011.7203369140624,125.0001983642578
838.9400024414062,853.7448120117188,-46.87507247924805,1015.6265869140624,128.90644836425778
840.5849609375,898.1592407226562,-46.87507247924805,1019.5328369140624,128.90644836425778
843.8749389648438,858.6797485351562,-46.87507247924805,1015.6265869140624,128.90644836425778
842.2299194335938,840.5849609375,-42.96881866455078,1015.6265869140624,128.90644836425778
843.8749389648438,888.2893676757812,-46.87507247924805,1019.5328369140624,125.0001983642578
843.8749389648438,809.330322265625,-46.87507247924805,1019.5328369140624,125.0001983642578
837.2949829101562,940.9287719726562,-42.96881866455078,1015.6265869140624,128.90644836425778
837.2949829101562,940.9287719726562,-50.78133010864258,1015.6265869140624,125.0001983642578
835.6500244140625,825.7801513671875,-50.78133010864258,1015.6265869140624,125.0001983642578
845.5198974609375,934.3488159179688,-42.96881866455078,1019.5328369140624,125.0001983642578
840.5849609375,908.0291748046876,-42.96881866455078,1019.5328369140624,125.0001983642578
837.2949829101562,855.3897705078125,-50.78133010864258,1007.8140869140624,125.0001983642578
843.8749389648438,875.1295166015625,-50.78133010864258,1015.6265869140624,125.0001983642578
843.8749389648438,875.1295166015625,-46.87507247924805,1019.5328369140624,128.90644836425778
843.8749389648438,875.1295166015625,-50.78133010864258,1019.5328369140624,128.90644836425778
840.5849609375,875.1295166015625,-46.87507247924805,1015.6265869140624,128.90644836425778
840.5849609375,904.7391967773438,-46.87507247924805,1015.6265869140624,128.90644836425778
845.5198974609375,870.194580078125,-39.06256103515625,1015.6265869140624,132.81271362304688
840.5849609375,865.2596435546875,-42.96881866455078,1015.6265869140624,136.71896362304688
840.5849609375,865.2596435546875,-46.87507247924805,1015.6265869140624,136.71896362304688
837.2949829101562,842.2299194335938,-54.687583923339844,1019.5328369140624,132.81271362304688
838.9400024414062,908.0291748046876,-39.06256103515625,1015.6265869140624,136.71896362304688
843.8749389648438,827.4251098632812,-39.06256103515625,1015.6265869140624,128.90644836425778
845.5198974609375,853.7448120117188,-42.96881866455078,1011.7203369140624,128.90644836425778
843.8749389648438,908.0291748046876,-46.87507247924805,1015.6265869140624,128.90644836425778
847.1648559570312,881.70947265625,-39.06256103515625,1015.6265869140624,132.81271362304688
840.5849609375,763.2708740234375,-39.06256103515625,1011.7203369140624,140.62521362304688
845.5198974609375,835.6500244140625,-39.06256103515625,1011.7203369140624,140.62521362304688
847.1648559570312,878.4194946289062,-46.87507247924805,1011.7203369140624,136.71896362304688
838.9400024414062,855.3897705078125,-42.96881866455078,1011.7203369140624,136.71896362304688
838.9400024414062,855.3897705078125,-42.96881866455078,1019.5328369140624,132.81271362304688
842.2299194335938,881.70947265625,-42.96881866455078,1019.5328369140624,132.81271362304688
842.2299194335938,934.3488159179688,-46.87507247924805,1015.6265869140624,136.71896362304688
838.9400024414062,829.070068359375,-50.78133010864258,1015.6265869140624,136.71896362304688
838.9400024414062,857.0347290039062,-46.87507247924805,1019.5328369140624,140.62521362304688
840.5849609375,860.32470703125,-46.87507247924805,1019.5328369140624,140.62521362304688
840.5849609375,860.32470703125,-50.78133010864258,1015.6265869140624,136.71896362304688
838.9400024414062,855.3897705078125,-50.78133010864258,1015.6265869140624,136.71896362304688
832.3600463867188,822.4901733398438,-46.87507247924805,1019.5328369140624,136.71896362304688
840.5849609375,845.5198974609375,-58.59384155273438,1015.6265869140624,128.90644836425778
840.5849609375,845.5198974609375,-50.78133010864258,1007.8140869140624,132.81271362304688
843.8749389648438,924.4789428710938,-50.78133010864258,1007.8140869140624,132.81271362304688
850.454833984375,871.839599609375,-46.87507247924805,1011.7203369140624,132.81271362304688
847.1648559570312,845.5198974609375,-46.87507247924805,1015.6265869140624,128.90644836425778
842.2299194335938,871.839599609375,-50.78133010864258,1011.7203369140624,125.0001983642578
842.2299194335938,871.839599609375,-50.78133010864258,1011.7203369140624,128.90644836425778
847.1648559570312,906.3841552734376,-50.78133010864258,1011.7203369140624,128.90644836425778
843.8749389648438,791.2355346679688,-50.78133010864258,1019.5328369140624,128.90644836425778
840.5849609375,820.84521484375,-54.687583923339844,1015.6265869140624,128.90644836425778
840.5849609375,853.7448120117188,-54.687583923339844,1015.6265869140624,128.90644836425778
837.2949829101562,853.7448120117188,-54.687583923339844,1015.6265869140624,128.90644836425778
838.9400024414062,893.2243041992188,-54.687583923339844,1019.5328369140624,128.90644836425778
832.3600463867188,842.2299194335938,-46.87507247924805,1015.6265869140624,128.90644836425778
834.0050048828125,884.9994506835938,-50.78133010864258,1007.8140869140624,128.90644836425778
834.0050048828125,852.0997924804688,-50.78133010864258,1015.6265869140624,128.90644836425778
834.0050048828125,852.0997924804688,-46.87507247924805,1007.8140869140624,132.81271362304688
829.070068359375,848.8098754882812,-46.87507247924805,1007.8140869140624,132.81271362304688
830.715087890625,843.8749389648438,-50.78133010864258,1015.6265869140624,128.90644836425778
834.0050048828125,909.6741333007812,-50.78133010864258,1019.5328369140624,128.90644836425778
834.0050048828125,886.6444091796875,-58.59384155273438,1015.6265869140624,128.90644836425778
834.0050048828125,889.9343872070312,-58.59384155273438,1015.6265869140624,128.90644836425778
830.715087890625,784.6556396484375,-62.5000991821289,1015.6265869140624,125.0001983642578
835.6500244140625,863.6146850585938,-62.5000991821289,1015.6265869140624,125.0001983642578
834.0050048828125,837.2949829101562,-54.687583923339844,1015.6265869140624,128.90644836425778
832.3600463867188,942.57373046875,-54.687583923339844,1015.6265869140624,128.90644836425778
835.6500244140625,914.6090698242188,-54.687583923339844,1019.5328369140624,128.90644836425778
835.6500244140625,914.6090698242188,-54.687583923339844,1011.7203369140624,128.90644836425778
832.3600463867188,888.2893676757812,-54.687583923339844,1011.7203369140624,128.90644836425778
834.0050048828125,888.2893676757812,-58.59384155273438,1015.6265869140624,125.0001983642578
834.0050048828125,888.2893676757812,-62.5000991821289,1015.6265869140624,128.90644836425778
832.3600463867188,888.2893676757812,-62.5000991821289,1011.7203369140624,125.0001983642578
834.0050048828125,914.6090698242188,-62.5000991821289,1015.6265869140624,128.90644836425778
834.0050048828125,888.2893676757812,-58.59384155273438,1015.6265869140624,132.81271362304688
835.6500244140625,861.9697265625,-58.59384155273438,1015.6265869140624,132.81271362304688
834.0050048828125,848.8098754882812,-58.59384155273438,1011.7203369140624,128.90644836425778
834.0050048828125,848.8098754882812,-62.5000991821289,1015.6265869140624,128.90644836425778
835.6500244140625,908.0291748046876,-62.5000991821289,1015.6265869140624,128.90644836425778
832.3600463867188,842.2299194335938,-58.59384155273438,1015.6265869140624,128.90644836425778
832.3600463867188,842.2299194335938,-58.59384155273438,1015.6265869140624,125.0001983642578
835.6500244140625,908.0291748046876,-58.59384155273438,1015.6265869140624,125.0001983642578
830.715087890625,819.2001953125,-54.687583923339844,1019.5328369140624,128.90644836425778
822.4901733398438,779.720703125,-54.687583923339844,1015.6265869140624,128.90644836425778
822.4901733398438,779.720703125,-58.59384155273438,1011.7203369140624,128.90644836425778
820.84521484375,832.3600463867188,-58.59384155273438,1011.7203369140624,128.90644836425778
824.1351318359375,779.720703125,-62.5000991821289,1019.5328369140624,132.81271362304688
824.1351318359375,779.720703125,-58.59384155273438,1015.6265869140624,128.90644836425778
829.070068359375,842.2299194335938,-58.59384155273438,1015.6265869140624,128.90644836425778
829.070068359375,838.9400024414062,-58.59384155273438,1019.5328369140624,132.81271362304688
834.0050048828125,824.1351318359375,-54.687583923339844,1015.6265869140624,132.81271362304688
838.9400024414062,845.5198974609375,-58.59384155273438,1011.7203369140624,132.81271362304688
837.2949829101562,850.454833984375,-58.59384155273438,1015.6265869140624,132.81271362304688
843.8749389648438,852.0997924804688,-58.59384155273438,1011.7203369140624,136.71896362304688
843.8749389648438,852.0997924804688,-62.5000991821289,1007.8140869140624,136.71896362304688
848.8098754882812,791.2355346679688,-62.5000991821289,1007.8140869140624,136.71896362304688
847.1648559570312,825.7801513671875,-70.31260681152344,1015.6265869140624,132.81271362304688
850.454833984375,825.7801513671875,-74.21886444091797,1019.5328369140624,132.81271362304688
847.1648559570312,825.7801513671875,-66.40635681152344,1015.6265869140624,128.90644836425778
837.2949829101562,825.7801513671875,-66.40635681152344,1015.6265869140624,128.90644836425778
840.5849609375,875.1295166015625,-66.40635681152344,1011.7203369140624,128.90644836425778
837.2949829101562,822.4901733398438,-62.5000991821289,1011.7203369140624,132.81271362304688
825.7801513671875,799.46044921875,-66.40635681152344,1015.6265869140624,132.81271362304688
829.070068359375,817.5552368164062,-74.21886444091797,1019.5328369140624,128.90644836425778
832.3600463867188,829.070068359375,-70.31260681152344,1011.7203369140624,132.81271362304688
830.715087890625,825.7801513671875,-66.40635681152344,1011.7203369140624,136.71896362304688
840.5849609375,824.1351318359375,-74.21886444091797,1015.6265869140624,136.71896362304688
838.9400024414062,824.1351318359375,-66.40635681152344,1015.6265869140624,144.53147888183594
840.5849609375,817.5552368164062,-74.21886444091797,1011.7203369140624,132.81271362304688
840.5849609375,817.5552368164062,-70.31260681152344,1011.7203369140624,132.81271362304688
835.6500244140625,830.715087890625,-66.40635681152344,1011.7203369140624,136.71896362304688
835.6500244140625,830.715087890625,-66.40635681152344,1015.6265869140624,136.71896362304688
838.9400024414062,825.7801513671875,-66.40635681152344,1015.6265869140624,136.71896362304688
845.5198974609375,832.3600463867188,-66.40635681152344,1015.6265869140624,132.81271362304688
853.7448120117188,848.8098754882812,-62.5000991821289,1015.6265869140624,136.71896362304688
853.7448120117188,848.8098754882812,-70.31260681152344,1015.6265869140624,128.90644836425778
845.5198974609375,853.7448120117188,-78.1251220703125,1019.5328369140624,128.90644836425778
847.1648559570312,873.4845581054688,-62.5000991821289,1011.7203369140624,140.62521362304688
845.5198974609375,847.1648559570312,-62.5000991821289,1011.7203369140624,140.62521362304688
842.2299194335938,820.84521484375,-66.40635681152344,1015.6265869140624,136.71896362304688
842.2299194335938,820.84521484375,-70.31260681152344,1015.6265869140624,136.71896362304688
842.2299194335938,906.3841552734376,-70.31260681152344,1015.6265869140624,136.71896362304688
853.7448120117188,838.9400024414062,-74.21886444091797,1011.7203369140624,136.71896362304688
857.0347290039062,868.5496215820312,-74.21886444091797,1011.7203369140624,136.71896362304688
852.0997924804688,804.3953857421875,-74.21886444091797,1011.7203369140624,136.71896362304688
843.8749389648438,858.6797485351562,-74.21886444091797,1011.7203369140624,140.62521362304688
850.454833984375,878.4194946289062,-70.31260681152344,1015.6265869140624,136.71896362304688
842.2299194335938,866.9046630859375,-66.40635681152344,1011.7203369140624,132.81271362304688
840.5849609375,820.84521484375,-66.40635681152344,1011.7203369140624,132.81271362304688
829.070068359375,949.1536865234376,-78.1251220703125,1011.7203369140624,136.71896362304688
842.2299194335938,896.5142822265625,-78.1251220703125,1011.7203369140624,136.71896362304688
834.0050048828125,847.1648559570312,-78.1251220703125,1015.6265869140624,140.62521362304688
838.9400024414062,804.3953857421875,-74.21886444091797,1015.6265869140624,136.71896362304688
842.2299194335938,857.0347290039062,-74.21886444091797,1011.7203369140624,140.62521362304688
852.0997924804688,804.3953857421875,-70.31260681152344,1019.5328369140624,144.53147888183594
852.0997924804688,804.3953857421875,-74.21886444091797,1015.6265869140624,140.62521362304688
847.1648559570312,837.2949829101562,-74.21886444091797,1015.6265869140624,140.62521362304688
845.5198974609375,850.454833984375,-74.21886444091797,1007.8140869140624,140.62521362304688
842.2299194335938,834.0050048828125,-74.21886444091797,1011.7203369140624,140.62521362304688
843.8749389648438,860.32470703125,-78.1251220703125,1011.7203369140624,136.71896362304688
843.8749389648438,860.32470703125,-78.1251220703125,1015.6265869140624,140.62521362304688
842.2299194335938,834.0050048828125,-74.21886444091797,1015.6265869140624,140.62521362304688
837.2949829101562,834.0050048828125,-70.31260681152344,1011.7203369140624,140.62521362304688
837.2949829101562,834.0050048828125,-74.21886444091797,1015.6265869140624,140.62521362304688
848.8098754882812,886.6444091796875,-74.21886444091797,1015.6265869140624,140.62521362304688
842.2299194335938,883.3544311523438,-70.31260681152344,1015.6265869140624,140.62521362304688
837.2949829101562,870.194580078125,-70.31260681152344,1015.6265869140624,140.62521362304688
838.9400024414062,837.2949829101562,-70.31260681152344,1011.7203369140624,136.71896362304688
838.9400024414062,837.2949829101562,-66.40635681152344,1011.7203369140624,140.62521362304688
837.2949829101562,863.6146850585938,-70.31260681152344,1015.6265869140624,140.62521362304688
840.5849609375,847.1648559570312,-78.1251220703125,1011.7203369140624,136.71896362304688
840.5849609375,847.1648559570312,-66.40635681152344,1007.8140869140624,144.53147888183594
837.2949829101562,794.5255126953125,-70.31260681152344,1019.5328369140624,140.62521362304688
837.2949829101562,794.5255126953125,-70.31260681152344,1011.7203369140624,140.62521362304688
835.6500244140625,830.715087890625,-70.31260681152344,1011.7203369140624,144.53147888183594
834.0050048828125,843.8749389648438,-66.40635681152344,1015.6265869140624,144.53147888183594
842.2299194335938,861.9697265625,-66.40635681152344,1011.7203369140624,144.53147888183594
842.2299194335938,861.9697265625,-66.40635681152344,1011.7203369140624,140.62521362304688
843.8749389648438,857.0347290039062,-70.31260681152344,1011.7203369140624,140.62521362304688
842.2299194335938,850.454833984375,-66.40635681152344,1011.7203369140624,140.62521362304688
842.2299194335938,810.9752807617188,-66.40635681152344,1011.7203369140624,140.62521362304688
842.2299194335938,860.32470703125,-62.5000991821289,1015.6265869140624,140.62521362304688
848.8098754882812,927.7689208984376,-74.21886444091797,1015.6265869140624,136.71896362304688
848.8098754882812,927.7689208984376,-62.5000991821289,1015.6265869140624,144.53147888183594
842.2299194335938,855.3897705078125,-62.5000991821289,1015.6265869140624,144.53147888183594
838.9400024414062,870.194580078125,-66.40635681152344,1015.6265869140624,144.53147888183594
837.2949829101562,880.064453125,-62.5000991821289,1011.7203369140624,140.62521362304688
837.2949829101562,850.454833984375,-62.5000991821289,1011.7203369140624,140.62521362304688
837.2949829101562,843.8749389648438,-70.31260681152344,1015.6265869140624,140.62521362304688
843.8749389648438,870.194580078125,-70.31260681152344,1019.5328369140624,140.62521362304688
843.8749389648438,870.194580078125,-70.31260681152344,1015.6265869140624,136.71896362304688
838.9400024414062,847.1648559570312,-74.21886444091797,1015.6265869140624,136.71896362304688
835.6500244140625,820.84521484375,-70.31260681152344,1011.7203369140624,136.71896362304688
835.6500244140625,820.84521484375,-66.40635681152344,1011.7203369140624,136.71896362304688
834.0050048828125,768.205810546875,-66.40635681152344,1011.7203369140624,136.71896362304688
835.6500244140625,847.1648559570312,-70.31260681152344,1011.7203369140624,140.62521362304688
834.0050048828125,827.4251098632812,-62.5000991821289,1011.7203369140624,140.62521362304688
837.2949829101562,858.6797485351562,-70.31260681152344,1015.6265869140624,140.62521362304688
834.0050048828125,837.2949829101562,-62.5000991821289,1007.8140869140624,144.53147888183594
835.6500244140625,834.0050048828125,-62.5000991821289,1007.8140869140624,144.53147888183594
837.2949829101562,880.064453125,-62.5000991821289,1011.7203369140624,144.53147888183594
837.2949829101562,829.070068359375,-66.40635681152344,1011.7203369140624,140.62521362304688
825.7801513671875,797.8154907226562,-66.40635681152344,1011.7203369140624,136.71896362304688
832.3600463867188,903.09423828125,-66.40635681152344,1011.7203369140624,136.71896362304688
834.0050048828125,903.09423828125,-70.31260681152344,1015.6265869140624,136.71896362304688
834.0050048828125,903.09423828125,-70.31260681152344,1011.7203369140624,140.62521362304688
832.3600463867188,852.0997924804688,-70.31260681152344,1015.6265869140624,140.62521362304688
834.0050048828125,840.5849609375,-70.31260681152344,1015.6265869140624,140.62521362304688
837.2949829101562,847.1648559570312,-66.40635681152344,1011.7203369140624,148.43772888183594
832.3600463867188,834.0050048828125,-66.40635681152344,1011.7203369140624,148.43772888183594
842.2299194335938,880.064453125,-74.21886444091797,1019.5328369140624,140.62521362304688
842.2299194335938,880.064453125,-74.21886444091797,1015.6265869140624,140.62521362304688
842.2299194335938,880.064453125,-66.40635681152344,1007.8140869140624,148.43772888183594
837.2949829101562,748.466064453125,-66.40635681152344,1007.8140869140624,148.43772888183594
834.0050048828125,908.0291748046876,-66.40635681152344,1019.5328369140624,140.62521362304688
834.0050048828125,908.0291748046876,-66.40635681152344,1011.7203369140624,144.53147888183594
834.0050048828125,908.0291748046876,-70.31260681152344,1011.7203369140624,144.53147888183594
834.0050048828125,908.0291748046876,-74.21886444091797,1011.7203369140624,140.62521362304688
829.070068359375,835.6500244140625,-70.31260681152344,1007.8140869140624,140.62521362304688
835.6500244140625,881.70947265625,-74.21886444091797,1015.6265869140624,140.62521362304688
832.3600463867188,838.9400024414062,-74.21886444091797,1011.7203369140624,140.62521362304688
830.715087890625,824.1351318359375,-74.21886444091797,1011.7203369140624,140.62521362304688
830.715087890625,824.1351318359375,-70.31260681152344,1011.7203369140624,144.53147888183594
830.715087890625,824.1351318359375,-66.40635681152344,1011.7203369140624,144.53147888183594
843.8749389648438,929.4138793945312,-66.40635681152344,1011.7203369140624,144.53147888183594
832.3600463867188,847.1648559570312,-70.31260681152344,1011.7203369140624,140.62521362304688
832.3600463867188,847.1648559570312,-62.5000991821289,1011.7203369140624,144.53147888183594
834.0050048828125,852.0997924804688,-74.21886444091797,1019.5328369140624,144.53147888183594
834.0050048828125,843.8749389648438,-66.40635681152344,1007.8140869140624,144.53147888183594
829.070068359375,912.964111328125,-66.40635681152344,1007.8140869140624,144.53147888183594
834.0050048828125,827.4251098632812,-66.40635681152344,1015.6265869140624,144.53147888183594
834.0050048828125,827.4251098632812,-70.31260681152344,1011.7203369140624,144.53147888183594
837.2949829101562,880.064453125,-70.31260681152344,1011.7203369140624,140.62521362304688
835.6500244140625,860.32470703125,-66.40635681152344,1011.7203369140624,144.53147888183594
835.6500244140625,860.32470703125,-66.40635681152344,1015.6265869140624,144.53147888183594
834.0050048828125,807.6853637695312,-70.31260681152344,1015.6265869140624,144.53147888183594
837.2949829101562,860.32470703125,-70.31260681152344,1011.7203369140624,144.53147888183594
837.2949829101562,860.32470703125,-70.31260681152344,1011.7203369140624,140.62521362304688
837.2949829101562,860.32470703125,-66.40635681152344,1015.6265869140624,144.53147888183594
842.2299194335938,873.4845581054688,-70.31260681152344,1019.5328369140624,140.62521362304688
842.2299194335938,873.4845581054688,-66.40635681152344,1003.9078369140624,140.62521362304688
835.6500244140625,899.8042602539062,-58.59384155273438,1015.6265869140624,144.53147888183594
835.6500244140625,899.8042602539062,-62.5000991821289,1011.7203369140624,148.43772888183594
835.6500244140625,794.5255126953125,-70.31260681152344,1011.7203369140624,144.53147888183594
840.5849609375,873.4845581054688,-70.31260681152344,1011.7203369140624,144.53147888183594
842.2299194335938,876.7745361328125,-70.31260681152344,1011.7203369140624,144.53147888183594
837.2949829101562,863.6146850585938,-70.31260681152344,1015.6265869140624,144.53147888183594
838.9400024414062,916.2540283203124,-66.40635681152344,1015.6265869140624,144.53147888183594
840.5849609375,834.0050048828125,-62.5000991821289,1015.6265869140624,144.53147888183594
840.5849609375,834.0050048828125,-66.40635681152344,1011.7203369140624,140.62521362304688
843.8749389648438,870.194580078125,-66.40635681152344,1011.7203369140624,136.71896362304688
840.5849609375,838.9400024414062,-58.59384155273438,1015.6265869140624,144.53147888183594
838.9400024414062,860.32470703125,-66.40635681152344,1007.8140869140624,140.62521362304688
838.9400024414062,860.32470703125,-70.31260681152344,1011.7203369140624,140.62521362304688
840.5849609375,807.6853637695312,-70.31260681152344,1011.7203369140624,140.62521362304688
840.5849609375,819.2001953125,-62.5000991821289,1015.6265869140624,144.53147888183594
840.5849609375,819.2001953125,-66.40635681152344,1015.6265869140624,144.53147888183594
840.5849609375,819.2001953125,-66.40635681152344,1011.7203369140624,140.62521362304688
840.5849609375,819.2001953125,-66.40635681152344,1011.7203369140624,144.53147888183594
842.2299194335938,857.0347290039062,-66.40635681152344,1011.7203369140624,144.53147888183594
840.5849609375,858.6797485351562,-66.40635681152344,1011.7203369140624,140.62521362304688
840.5849609375,858.6797485351562,-66.40635681152344,1015.6265869140624,144.53147888183594
845.5198974609375,858.6797485351562,-66.40635681152344,1015.6265869140624,144.53147888183594
840.5849609375,786.3005981445312,-66.40635681152344,1015.6265869140624,140.62521362304688
843.8749389648438,847.1648559570312,-62.5000991821289,1015.6265869140624,140.62521362304688
835.6500244140625,834.0050048828125,-62.5000991821289,1011.7203369140624,140.62521362304688
838.9400024414062,834.0050048828125,-54.687583923339844,1015.6265869140624,144.53147888183594
835.6500244140625,807.6853637695312,-58.59384155273438,1015.6265869140624,144.53147888183594
835.6500244140625,807.6853637695312,-62.5000991821289,1007.8140869140624,140.62521362304688
835.6500244140625,807.6853637695312,-62.5000991821289,1011.7203369140624,140.62521362304688
835.6500244140625,830.715087890625,-66.40635681152344,1011.7203369140624,140.62521362304688
834.0050048828125,834.0050048828125,-62.5000991821289,1011.7203369140624,144.53147888183594
834.0050048828125,834.0050048828125,-66.40635681152344,1015.6265869140624,144.53147888183594
838.9400024414062,827.4251098632812,-66.40635681152344,1011.7203369140624,144.53147888183594
843.8749389648438,883.3544311523438,-70.31260681152344,1015.6265869140624,140.62521362304688
845.5198974609375,935.9938354492188,-70.31260681152344,1015.6265869140624,140.62521362304688
838.9400024414062,830.715087890625,-70.31260681152344,1015.6265869140624,140.62521362304688
840.5849609375,857.0347290039062,-58.59384155273438,1011.7203369140624,140.62521362304688
840.5849609375,884.9994506835938,-58.59384155273438,1011.7203369140624,140.62521362304688
842.2299194335938,832.3600463867188,-50.78133010864258,1015.6265869140624,144.53147888183594
838.9400024414062,883.3544311523438,-66.40635681152344,1015.6265869140624,144.53147888183594
835.6500244140625,778.07568359375,-66.40635681152344,1015.6265869140624,144.53147888183594
845.5198974609375,830.715087890625,-70.31260681152344,1015.6265869140624,136.71896362304688
842.2299194335938,778.07568359375,-70.31260681152344,1015.6265869140624,136.71896362304688
830.715087890625,825.7801513671875,-62.5000991821289,1011.7203369140624,140.62521362304688
830.715087890625,825.7801513671875,-70.31260681152344,1011.7203369140624,136.71896362304688
