EEG1,EEG2,Acc_X,Acc_Y,Acc_Z
825.7801513671875,814.2652587890625,-441.4069519042969,824.2200317382812,464.844482421875
794.5255126953125,807.6853637695312,-406.2506408691406,820.3137817382812,476.563232421875
838.9400024414062,855.3897705078125,-402.3443908691406,832.0325317382812,476.563232421875
834.0050048828125,843.8749389648438,-402.3443908691406,816.4075317382812,472.656982421875
840.5849609375,853.7448120117188,-421.8756713867188,812.5012817382812,472.656982421875
840.5849609375,853.7448120117188,-429.6881713867188,832.0325317382812,468.750732421875
830.715087890625,845.5198974609375,-429.6881713867188,832.0325317382812,468.750732421875
807.6853637695312,843.8749389648438,-437.5006713867188,851.5638427734375,468.750732421875
807.6853637695312,843.8749389648438,-402.3443908691406,851.5638427734375,496.0945129394531
835.6500244140625,858.6797485351562,-390.6256103515625,875.0013427734375,492.1882629394531
814.2652587890625,858.6797485351562,-390.6256103515625,875.0013427734375,492.1882629394531
824.1351318359375,863.6146850585938,-425.7819213867188,789.063720703125,476.563232421875
827.4251098632812,870.194580078125,-425.7819213867188,789.063720703125,476.563232421875
829.070068359375,863.6146850585938,-445.3132019042969,761.719970703125,437.5006713867188
807.6853637695312,838.9400024414062,-445.3132019042969,761.719970703125,437.5006713867188
801.1054077148438,817.5552368164062,-398.4381103515625,628.9072265625,375.0005798339844
764.9158325195312,796.1704711914062,-292.9692077636719,761.719970703125,332.0317687988281
753.4010009765625,784.6556396484375,-250.0003967285156,781.251220703125,328.1255187988281
778.07568359375,789.590576171875,-250.0003967285156,781.251220703125,328.1255187988281
909.6741333007812,891.579345703125,-35.15630340576172,675.7822875976562,527.3446044921875
917.8990478515624,824.1351318359375,-35.15630340576172,675.7822875976562,527.3446044921875
935.9938354492188,773.1407470703125,31.25004959106445,628.9072265625,699.2198486328125
929.4138793945312,766.5608520507812,-335.9380187988281,949.22021484375,93.7501449584961
916.2540283203124,783.0106201171875,-335.9380187988281,949.22021484375,93.7501449584961
916.2540283203124,783.0106201171875,-367.1880798339844,906.2514038085938,27.343791961669922
916.2540283203124,783.0106201171875,-359.37554931640625,894.5326538085938,19.531280517578125
896.5142822265625,787.945556640625,-359.37554931640625,894.5326538085938,19.531280517578125
894.8693237304688,773.1407470703125,-328.1255187988281,953.12646484375,7.812512397766112
894.8693237304688,794.5255126953125,-328.1255187988281,953.12646484375,7.812512397766112
899.8042602539062,807.6853637695312,-257.81289672851557,972.6577758789062,11.718768119812012
884.9994506835938,819.2001953125,-257.81289672851557,972.6577758789062,11.718768119812012
884.9994506835938,819.2001953125,-289.0629577636719,964.8452758789062,19.531280517578125
893.2243041992188,814.2652587890625,-289.0629577636719,964.8452758789062,19.531280517578125
884.9994506835938,801.1054077148438,-289.0629577636719,964.8452758789062,19.531280517578125
878.4194946289062,791.2355346679688,-285.1567077636719,984.3765258789062,35.15630340576172
880.064453125,796.1704711914062,-285.1567077636719,984.3765258789062,35.15630340576172
871.839599609375,815.9102783203125,-304.68798828125,972.6577758789062,50.78133010864258
878.4194946289062,809.330322265625,-304.68798828125,972.6577758789062,50.78133010864258
876.7745361328125,806.0403442382812,-300.7817077636719,992.1890258789062,66.40635681152344
886.6444091796875,809.330322265625,-312.50048828125,976.5640258789062,89.84388732910156
875.1295166015625,801.1054077148438,-312.50048828125,976.5640258789062,89.84388732910156
888.2893676757812,815.9102783203125,-300.7817077636719,972.6577758789062,101.56266021728516
876.7745361328125,812.6203002929688,-316.40673828125,968.7515258789062,101.56266021728516
878.4194946289062,829.070068359375,-316.40673828125,968.7515258789062,101.56266021728516
878.4194946289062,829.070068359375,-304.68798828125,964.8452758789062,132.81271362304688
878.4194946289062,829.070068359375,-300.7817077636719,980.4702758789062,140.62521362304688
860.32470703125,827.4251098632812,-296.8754577636719,988.2827758789062,148.43772888183594
860.32470703125,827.4251098632812,-292.9692077636719,972.6577758789062,164.06275939941406
866.9046630859375,825.7801513671875,-292.9692077636719,972.6577758789062,164.06275939941406
860.32470703125,809.330322265625,-292.9692077636719,984.3765258789062,175.78152465820312
860.32470703125,809.330322265625,-285.1567077636719,968.7515258789062,179.68777465820312
873.4845581054688,812.6203002929688,-285.1567077636719,968.7515258789062,179.68777465820312
880.064453125,812.6203002929688,-285.1567077636719,968.7515258789062,179.68777465820312
880.064453125,827.4251098632812,-292.9692077636719,972.6577758789062,183.5940399169922
878.4194946289062,835.6500244140625,-289.0629577636719,972.6577758789062,195.31280517578125
876.7745361328125,838.9400024414062,-269.5316772460937,972.6577758789062,203.1253204345703
866.9046630859375,840.5849609375,-289.0629577636719,972.6577758789062,210.93783569335938
866.9046630859375,840.5849609375,-289.0629577636719,980.4702758789062,214.84408569335938
871.839599609375,858.6797485351562,-289.0629577636719,980.4702758789062,214.84408569335938
868.5496215820312,850.454833984375,-277.3441772460937,964.8452758789062,226.56285095214844
876.7745361328125,842.2299194335938,-277.3441772460937,964.8452758789062,226.56285095214844
866.9046630859375,852.0997924804688,-277.3441772460937,964.8452758789062,226.56285095214844
873.4845581054688,853.7448120117188,-265.6254272460937,957.0327758789062,210.93783569335938
861.9697265625,858.6797485351562,-292.9692077636719,980.4702758789062,214.84408569335938
861.9697265625,861.9697265625,-285.1567077636719,968.7515258789062,222.65660095214844
863.6146850585938,855.3897705078125,-292.9692077636719,953.12646484375,210.93783569335938
852.0997924804688,847.1648559570312,-292.9692077636719,953.12646484375,210.93783569335938
845.5198974609375,843.8749389648438,-292.9692077636719,953.12646484375,210.93783569335938
850.454833984375,842.2299194335938,-265.6254272460937,968.7515258789062,218.75033569335938
852.0997924804688,843.8749389648438,-265.6254272460937,968.7515258789062,218.75033569335938
855.3897705078125,840.5849609375,-289.0629577636719,976.5640258789062,222.65660095214844
848.8098754882812,845.5198974609375,-292.9692077636719,988.2827758789062,234.3753662109375
857.0347290039062,852.0997924804688,-285.1567077636719,980.4702758789062,246.09413146972656
857.0347290039062,852.0997924804688,-292.9692077636719,960.9390258789062,234.3753662109375
848.8098754882812,842.2299194335938,-292.9692077636719,960.9390258789062,234.3753662109375
838.9400024414062,848.8098754882812,-304.68798828125,960.9390258789062,226.56285095214844
848.8098754882812,842.2299194335938,-304.68798828125,964.8452758789062,222.65660095214844
855.3897705078125,850.454833984375,-300.7817077636719,968.7515258789062,214.84408569335938
838.9400024414062,863.6146850585938,-296.8754577636719,980.4702758789062,218.75033569335938
834.0050048828125,865.2596435546875,-304.68798828125,976.5640258789062,199.21905517578125
815.9102783203125,871.839599609375,-289.0629577636719,976.5640258789062,179.68777465820312
815.9102783203125,871.839599609375,-289.0629577636719,964.8452758789062,164.06275939941406
820.84521484375,891.579345703125,-285.1567077636719,968.7515258789062,156.250244140625
825.7801513671875,883.3544311523438,-277.3441772460937,968.7515258789062,117.18768310546876
825.7801513671875,883.3544311523438,-281.2504272460937,964.8452758789062,105.46891784667969
824.1351318359375,875.1295166015625,-281.2504272460937,964.8452758789062,105.46891784667969
827.4251098632812,883.3544311523438,-281.2504272460937,964.8452758789062,105.46891784667969
822.4901733398438,884.9994506835938,-277.3441772460937,957.0327758789062,89.84388732910156
822.4901733398438,884.9994506835938,-269.5316772460937,960.9390258789062,85.93763732910156
824.1351318359375,881.70947265625,-269.5316772460937,960.9390258789062,85.93763732910156
817.5552368164062,861.9697265625,-273.4379272460937,957.0327758789062,78.1251220703125
822.4901733398438,866.9046630859375,-296.8754577636719,929.68896484375,89.84388732910156
817.5552368164062,873.4845581054688,-296.8754577636719,929.68896484375,89.84388732910156
822.4901733398438,873.4845581054688,-285.1567077636719,980.4702758789062,109.37516784667969
822.4901733398438,873.4845581054688,-273.4379272460937,988.2827758789062,125.0001983642578
827.4251098632812,860.32470703125,-273.4379272460937,988.2827758789062,125.0001983642578
819.2001953125,865.2596435546875,-273.4379272460937,988.2827758789062,125.0001983642578
827.4251098632812,861.9697265625,-289.0629577636719,976.5640258789062,160.156494140625
824.1351318359375,853.7448120117188,-289.0629577636719,976.5640258789062,160.156494140625
789.590576171875,822.4901733398438,-332.0317687988281,957.0327758789062,203.1253204345703
789.590576171875,822.4901733398438,-359.37554931640625,957.0327758789062,179.68777465820312
799.46044921875,835.6500244140625,-359.37554931640625,957.0327758789062,179.68777465820312
814.2652587890625,842.2299194335938,-296.8754577636719,910.1576538085938,179.68777465820312
797.8154907226562,834.0050048828125,-296.8754577636719,925.78271484375,203.1253204345703
806.0403442382812,832.3600463867188,-335.9380187988281,968.7515258789062,207.0315704345703
806.0403442382812,832.3600463867188,-343.75054931640625,972.6577758789062,226.56285095214844
801.1054077148438,842.2299194335938,-343.75054931640625,972.6577758789062,226.56285095214844
804.3953857421875,858.6797485351562,-316.40673828125,984.3765258789062,250.0003967285156
804.3953857421875,858.6797485351562,-371.0943298339844,875.0013427734375,230.4691162109375
817.5552368164062,853.7448120117188,-335.9380187988281,871.0950927734375,250.0003967285156
809.330322265625,865.2596435546875,-285.1567077636719,968.7515258789062,296.8754577636719
817.5552368164062,888.2893676757812,-292.9692077636719,953.12646484375,347.65679931640625
776.4307250976562,847.1648559570312,-328.1255187988281,972.6577758789062,339.8442687988281
804.3953857421875,855.3897705078125,-300.7817077636719,886.7201538085938,332.0317687988281
799.46044921875,858.6797485351562,-312.50048828125,921.87646484375,328.1255187988281
771.4957885742188,855.3897705078125,-312.50048828125,921.87646484375,328.1255187988281
771.4957885742188,855.3897705078125,-320.31298828125,917.97021484375,320.31298828125
809.330322265625,861.9697265625,-320.31298828125,917.97021484375,320.31298828125
801.1054077148438,832.3600463867188,-335.9380187988281,941.40771484375,343.75054931640625
792.8805541992188,832.3600463867188,-335.9380187988281,937.50146484375,351.56304931640625
804.3953857421875,830.715087890625,-335.9380187988281,937.50146484375,351.56304931640625
797.8154907226562,824.1351318359375,-312.50048828125,894.5326538085938,375.0005798339844
834.0050048828125,845.5198974609375,-312.50048828125,894.5326538085938,375.0005798339844
829.070068359375,837.2949829101562,-312.50048828125,894.5326538085938,375.0005798339844
814.2652587890625,843.8749389648438,-316.40673828125,914.0639038085938,390.6256103515625
824.1351318359375,850.454833984375,-328.1255187988281,914.0639038085938,394.5318603515625
843.8749389648438,860.32470703125,-328.1255187988281,914.0639038085938,394.5318603515625
819.2001953125,847.1648559570312,-335.9380187988281,890.6264038085938,386.7193603515625
837.2949829101562,858.6797485351562,-332.0317687988281,886.7201538085938,386.7193603515625
875.1295166015625,835.6500244140625,-328.1255187988281,902.3451538085938,386.7193603515625
858.6797485351562,832.3600463867188,-296.8754577636719,898.4389038085938,382.8131103515625
855.3897705078125,837.2949829101562,-296.8754577636719,902.3451538085938,375.0005798339844
855.3897705078125,837.2949829101562,-316.40673828125,914.0639038085938,371.0943298339844
855.3897705078125,837.2949829101562,-332.0317687988281,886.7201538085938,371.0943298339844
858.6797485351562,829.070068359375,-332.0317687988281,886.7201538085938,371.0943298339844
842.2299194335938,827.4251098632812,-324.2192687988281,910.1576538085938,394.5318603515625
842.2299194335938,827.4251098632812,-300.7817077636719,902.3451538085938,406.2506408691406
842.2299194335938,827.4251098632812,-304.68798828125,910.1576538085938,402.3443908691406
840.5849609375,837.2949829101562,-304.68798828125,910.1576538085938,402.3443908691406
834.0050048828125,837.2949829101562,-324.2192687988281,902.3451538085938,386.7193603515625
834.0050048828125,837.2949829101562,-324.2192687988281,906.2514038085938,386.7193603515625
827.4251098632812,829.070068359375,-320.31298828125,898.4389038085938,382.8131103515625
827.4251098632812,829.070068359375,-304.68798828125,886.7201538085938,386.7193603515625
827.4251098632812,829.070068359375,-296.8754577636719,894.5326538085938,386.7193603515625
834.0050048828125,838.9400024414062,-296.8754577636719,894.5326538085938,386.7193603515625
843.8749389648438,857.0347290039062,-300.7817077636719,910.1576538085938,390.6256103515625
830.715087890625,842.2299194335938,-300.7817077636719,910.1576538085938,390.6256103515625
847.1648559570312,847.1648559570312,-308.59423828125,902.3451538085938,386.7193603515625
847.1648559570312,847.1648559570312,-312.50048828125,894.5326538085938,382.8131103515625
855.3897705078125,857.0347290039062,-312.50048828125,894.5326538085938,382.8131103515625
855.3897705078125,857.0347290039062,-312.50048828125,910.1576538085938,378.9068298339844
847.1648559570312,852.0997924804688,-308.59423828125,914.0639038085938,386.7193603515625
847.1648559570312,852.0997924804688,-304.68798828125,906.2514038085938,382.8131103515625
853.7448120117188,843.8749389648438,-292.9692077636719,910.1576538085938,386.7193603515625
857.0347290039062,832.3600463867188,-289.0629577636719,902.3451538085938,378.9068298339844
860.32470703125,838.9400024414062,-289.0629577636719,902.3451538085938,378.9068298339844
855.3897705078125,835.6500244140625,-292.9692077636719,902.3451538085938,378.9068298339844
858.6797485351562,832.3600463867188,-273.4379272460937,925.78271484375,382.8131103515625
866.9046630859375,832.3600463867188,-265.6254272460937,910.1576538085938,386.7193603515625
880.064453125,830.715087890625,-269.5316772460937,917.97021484375,382.8131103515625
880.064453125,840.5849609375,-257.81289672851557,906.2514038085938,390.6256103515625
875.1295166015625,835.6500244140625,-273.4379272460937,906.2514038085938,394.5318603515625
875.1295166015625,835.6500244140625,-273.4379272460937,914.0639038085938,390.6256103515625
863.6146850585938,820.84521484375,-273.4379272460937,914.0639038085938,390.6256103515625
848.8098754882812,819.2001953125,-281.2504272460937,914.0639038085938,375.0005798339844
866.9046630859375,820.84521484375,-281.2504272460937,914.0639038085938,375.0005798339844
861.9697265625,802.7504272460938,-277.3441772460937,910.1576538085938,378.9068298339844
861.9697265625,802.7504272460938,-292.9692077636719,871.0950927734375,398.4381103515625
866.9046630859375,827.4251098632812,-292.9692077636719,871.0950927734375,398.4381103515625
850.454833984375,822.4901733398438,-261.71914672851557,867.1888427734375,390.6256103515625
843.8749389648438,819.2001953125,-265.6254272460937,902.3451538085938,417.9693908691406
852.0997924804688,814.2652587890625,-265.6254272460937,902.3451538085938,417.9693908691406
852.0997924804688,807.6853637695312,-289.0629577636719,894.5326538085938,414.0631408691406
845.5198974609375,812.6203002929688,-308.59423828125,902.3451538085938,402.3443908691406
848.8098754882812,810.9752807617188,-308.59423828125,902.3451538085938,402.3443908691406
838.9400024414062,807.6853637695312,-292.9692077636719,890.6264038085938,417.9693908691406
817.5552368164062,824.1351318359375,-296.8754577636719,882.8139038085938,429.6881713867188
817.5552368164062,824.1351318359375,-289.0629577636719,863.2825927734375,441.4069519042969
837.2949829101562,845.5198974609375,-281.2504272460937,878.9076538085938,453.1257019042969
806.0403442382812,840.5849609375,-300.7817077636719,859.3763427734375,453.1257019042969
855.3897705078125,830.715087890625,-304.68798828125,871.0950927734375,460.938232421875
840.5849609375,824.1351318359375,-328.1255187988281,855.4700927734375,457.0319519042969
832.3600463867188,799.46044921875,-320.31298828125,789.063720703125,476.563232421875
832.3600463867188,799.46044921875,-308.59423828125,800.7825317382812,511.71954345703125
842.2299194335938,817.5552368164062,-308.59423828125,800.7825317382812,511.71954345703125
845.5198974609375,847.1648559570312,-281.2504272460937,847.6575927734375,570.3134155273438
847.1648559570312,850.454833984375,-292.9692077636719,855.4700927734375,578.1259155273438
838.9400024414062,850.454833984375,-289.0629577636719,828.1262817382812,605.4697265625
817.5552368164062,838.9400024414062,-289.0629577636719,820.3137817382812,605.4697265625
830.715087890625,825.7801513671875,-289.0629577636719,824.2200317382812,609.3759765625
830.715087890625,825.7801513671875,-281.2504272460937,800.7825317382812,597.6571655273438
842.2299194335938,838.9400024414062,-281.2504272460937,796.876220703125,601.5634155273438
838.9400024414062,840.5849609375,-281.2504272460937,796.876220703125,601.5634155273438
838.9400024414062,835.6500244140625,-281.2504272460937,808.5950317382812,609.3759765625
852.0997924804688,834.0050048828125,-281.2504272460937,808.5950317382812,609.3759765625
873.4845581054688,847.1648559570312,-269.5316772460937,828.1262817382812,597.6571655273438
871.839599609375,868.5496215820312,-265.6254272460937,824.2200317382812,589.8446655273438
857.0347290039062,852.0997924804688,-257.81289672851557,820.3137817382812,570.3134155273438
893.2243041992188,866.9046630859375,-257.81289672851557,824.2200317382812,554.6883544921875
893.2243041992188,866.9046630859375,-238.2816162109375,832.0325317382812,558.5946044921875
868.5496215820312,861.9697265625,-238.2816162109375,832.0325317382812,558.5946044921875
876.7745361328125,850.454833984375,-238.2816162109375,832.0325317382812,558.5946044921875
810.9752807617188,801.1054077148438,-234.3753662109375,820.3137817382812,531.2508544921875
832.3600463867188,804.3953857421875,-234.3753662109375,820.3137817382812,531.2508544921875
834.0050048828125,799.46044921875,-210.93783569335938,828.1262817382812,546.8758544921875
806.0403442382812,789.590576171875,-210.93783569335938,828.1262817382812,546.8758544921875
809.330322265625,802.7504272460938,-230.4691162109375,828.1262817382812,550.7821044921875
804.3953857421875,801.1054077148438,-222.65660095214844,832.0325317382812,550.7821044921875
810.9752807617188,768.205810546875,-253.9066467285156,843.7513427734375,542.9696044921875
810.9752807617188,768.205810546875,-246.09413146972656,839.8450927734375,546.8758544921875
799.46044921875,779.720703125,-246.09413146972656,839.8450927734375,546.8758544921875
804.3953857421875,778.07568359375,-234.3753662109375,855.4700927734375,558.5946044921875
810.9752807617188,771.4957885742188,-234.3753662109375,855.4700927734375,558.5946044921875
815.9102783203125,797.8154907226562,-234.3753662109375,855.4700927734375,558.5946044921875
829.070068359375,819.2001953125,-277.3441772460937,820.3137817382812,554.6883544921875
868.5496215820312,896.5142822265625,-277.3441772460937,820.3137817382812,554.6883544921875
868.5496215820312,896.5142822265625,-285.1567077636719,824.2200317382812,546.8758544921875
866.9046630859375,878.4194946289062,-285.1567077636719,824.2200317382812,546.8758544921875
865.2596435546875,883.3544311523438,-281.2504272460937,839.8450927734375,550.7821044921875
865.2596435546875,883.3544311523438,-261.71914672851557,828.1262817382812,558.5946044921875
861.9697265625,884.9994506835938,-261.71914672851557,828.1262817382812,558.5946044921875
866.9046630859375,875.1295166015625,-261.71914672851557,828.1262817382812,558.5946044921875
870.194580078125,875.1295166015625,-281.2504272460937,816.4075317382812,554.6883544921875
858.6797485351562,842.2299194335938,-281.2504272460937,816.4075317382812,554.6883544921875
840.5849609375,848.8098754882812,-289.0629577636719,808.5950317382812,554.6883544921875
860.32470703125,901.44921875,-285.1567077636719,824.2200317382812,558.5946044921875
860.32470703125,901.44921875,-292.9692077636719,816.4075317382812,558.5946044921875
860.32470703125,901.44921875,-281.2504272460937,800.7825317382812,566.4071655273438
850.454833984375,880.064453125,-281.2504272460937,800.7825317382812,566.4071655273438
863.6146850585938,873.4845581054688,-281.2504272460937,800.7825317382812,566.4071655273438
870.194580078125,881.70947265625,-289.0629577636719,812.5012817382812,582.0321655273438
857.0347290039062,866.9046630859375,-289.0629577636719,812.5012817382812,582.0321655273438
857.0347290039062,868.5496215820312,-308.59423828125,804.6887817382812,582.0321655273438
857.0347290039062,868.5496215820312,-312.50048828125,812.5012817382812,582.0321655273438
853.7448120117188,837.2949829101562,-312.50048828125,812.5012817382812,582.0321655273438
853.7448120117188,830.715087890625,-312.50048828125,800.7825317382812,582.0321655273438
863.6146850585938,814.2652587890625,-257.81289672851557,820.3137817382812,597.6571655273438
853.7448120117188,802.7504272460938,-257.81289672851557,820.3137817382812,597.6571655273438
850.454833984375,801.1054077148438,-246.09413146972656,808.5950317382812,574.2196655273438
850.454833984375,825.7801513671875,-246.09413146972656,808.5950317382812,574.2196655273438
837.2949829101562,819.2001953125,-246.09413146972656,808.5950317382812,574.2196655273438
848.8098754882812,830.715087890625,-253.9066467285156,800.7825317382812,550.7821044921875
838.9400024414062,842.2299194335938,-253.9066467285156,800.7825317382812,550.7821044921875
825.7801513671875,834.0050048828125,-246.09413146972656,808.5950317382812,570.3134155273438
829.070068359375,827.4251098632812,-246.09413146972656,808.5950317382812,570.3134155273438
837.2949829101562,832.3600463867188,-207.0315704345703,843.7513427734375,589.8446655273438
843.8749389648438,832.3600463867188,-203.1253204345703,839.8450927734375,562.5008544921875
829.070068359375,806.0403442382812,-191.40655517578125,835.9387817382812,566.4071655273438
860.32470703125,861.9697265625,-195.31280517578125,828.1262817382812,566.4071655273438
847.1648559570312,835.6500244140625,-195.31280517578125,820.3137817382812,570.3134155273438
799.46044921875,756.6909790039062,-195.31280517578125,820.3137817382812,570.3134155273438
799.46044921875,756.6909790039062,-171.87527465820312,855.4700927734375,558.5946044921875
852.0997924804688,861.9697265625,-191.40655517578125,828.1262817382812,562.5008544921875
799.46044921875,809.330322265625,-187.5002899169922,832.0325317382812,562.5008544921875
878.4194946289062,861.9697265625,-234.3753662109375,808.5950317382812,550.7821044921875
802.7504272460938,756.6909790039062,-234.3753662109375,808.5950317382812,550.7821044921875
825.7801513671875,756.6909790039062,-238.2816162109375,839.8450927734375,574.2196655273438
878.4194946289062,861.9697265625,-242.18788146972656,847.6575927734375,593.7509155273438
878.4194946289062,861.9697265625,-230.4691162109375,828.1262817382812,605.4697265625
878.4194946289062,861.9697265625,-250.0003967285156,804.6887817382812,597.6571655273438
817.5552368164062,755.0459594726562,-250.0003967285156,804.6887817382812,597.6571655273438
838.9400024414062,819.2001953125,-277.3441772460937,785.157470703125,597.6571655273438
834.0050048828125,806.0403442382812,-261.71914672851557,761.719970703125,613.2822265625
838.9400024414062,804.3953857421875,-246.09413146972656,800.7825317382812,621.0947265625
820.84521484375,771.4957885742188,-253.9066467285156,796.876220703125,621.0947265625
827.4251098632812,779.720703125,-253.9066467285156,796.876220703125,621.0947265625
842.2299194335938,819.2001953125,-269.5316772460937,750.0011596679688,605.4697265625
842.2299194335938,819.2001953125,-285.1567077636719,742.1886596679688,601.5634155273438
852.0997924804688,815.9102783203125,-316.40673828125,761.719970703125,597.6571655273438
852.0997924804688,815.9102783203125,-328.1255187988281,785.157470703125,597.6571655273438
829.070068359375,783.0106201171875,-339.8442687988281,796.876220703125,601.5634155273438
870.194580078125,861.9697265625,-339.8442687988281,796.876220703125,601.5634155273438
812.6203002929688,769.850830078125,-371.0943298339844,785.157470703125,589.8446655273438
809.330322265625,796.1704711914062,-371.0943298339844,785.157470703125,589.8446655273438
858.6797485351562,875.1295166015625,-363.2818298339844,800.7825317382812,574.2196655273438
858.6797485351562,875.1295166015625,-359.37554931640625,785.157470703125,562.5008544921875
806.0403442382812,796.1704711914062,-359.37554931640625,785.157470703125,562.5008544921875
827.4251098632812,848.8098754882812,-351.56304931640625,777.344970703125,550.7821044921875
827.4251098632812,848.8098754882812,-371.0943298339844,757.8136596679688,566.4071655273438
806.0403442382812,796.1704711914062,-371.0943298339844,757.8136596679688,566.4071655273438
812.6203002929688,822.4901733398438,-359.37554931640625,804.6887817382812,570.3134155273438
791.2355346679688,796.1704711914062,-359.37554931640625,812.5012817382812,554.6883544921875
863.6146850585938,901.44921875,-359.37554931640625,812.5012817382812,554.6883544921875
819.2001953125,810.9752807617188,-359.37554931640625,812.5012817382812,554.6883544921875
819.2001953125,810.9752807617188,-332.0317687988281,769.532470703125,546.8758544921875
835.6500244140625,820.84521484375,-312.50048828125,796.876220703125,550.7821044921875
827.4251098632812,787.945556640625,-300.7817077636719,800.7825317382812,535.1571044921875
857.0347290039062,814.2652587890625,-300.7817077636719,800.7825317382812,535.1571044921875
863.6146850585938,840.5849609375,-281.2504272460937,820.3137817382812,558.5946044921875
819.2001953125,781.3656616210938,-281.2504272460937,820.3137817382812,558.5946044921875
845.5198974609375,834.0050048828125,-277.3441772460937,812.5012817382812,585.9384155273438
845.5198974609375,834.0050048828125,-289.0629577636719,820.3137817382812,593.7509155273438
853.7448120117188,832.3600463867188,-285.1567077636719,824.2200317382812,593.7509155273438
857.0347290039062,853.7448120117188,-257.81289672851557,773.438720703125,566.4071655273438
878.4194946289062,884.9994506835938,-304.68798828125,820.3137817382812,546.8758544921875
858.6797485351562,848.8098754882812,-304.68798828125,820.3137817382812,546.8758544921875
842.2299194335938,829.070068359375,-226.56285095214844,820.3137817382812,527.3446044921875
842.2299194335938,829.070068359375,-238.2816162109375,832.0325317382812,527.3446044921875
870.194580078125,868.5496215820312,-238.2816162109375,832.0325317382812,527.3446044921875
871.839599609375,875.1295166015625,-238.2816162109375,871.0950927734375,527.3446044921875
845.5198974609375,827.4251098632812,-226.56285095214844,890.6264038085938,527.3446044921875
881.70947265625,883.3544311523438,-226.56285095214844,890.6264038085938,527.3446044921875
855.3897705078125,840.5849609375,-214.84408569335938,824.2200317382812,515.6257934570311
838.9400024414062,866.9046630859375,-214.84408569335938,824.2200317382812,515.6257934570311
886.6444091796875,960.6685180664062,-214.84408569335938,824.2200317382812,515.6257934570311
949.1536865234376,975.4733276367188,-35.15630340576172,875.0013427734375,589.8446655273438
903.09423828125,866.9046630859375,3.9062561988830566,824.2200317382812,578.1259155273438
921.18896484375,751.7560424804688,-31.25004959106445,867.1888427734375,566.4071655273438
921.18896484375,751.7560424804688,-7.812512397766112,847.6575927734375,589.8446655273438
950.7986450195312,857.0347290039062,-31.25004959106445,863.2825927734375,589.8446655273438
894.8693237304688,810.9752807617188,-23.437536239624023,867.1888427734375,593.7509155273438
894.8693237304688,810.9752807617188,-39.06256103515625,843.7513427734375,582.0321655273438
894.8693237304688,810.9752807617188,-42.96881866455078,835.9387817382812,578.1259155273438
937.6387939453124,901.44921875,-42.96881866455078,835.9387817382812,578.1259155273438
926.1239624023438,914.6090698242188,7.812512397766112,824.2200317382812,585.9384155273438
870.194580078125,875.1295166015625,-11.718768119812012,851.5638427734375,570.3134155273438
912.964111328125,888.2893676757812,-11.718768119812012,851.5638427734375,570.3134155273438
889.9343872070312,848.8098754882812,-27.343791961669922,843.7513427734375,570.3134155273438
889.9343872070312,848.8098754882812,-39.06256103515625,835.9387817382812,570.3134155273438
932.703857421875,901.44921875,-27.343791961669922,847.6575927734375,578.1259155273438
932.703857421875,901.44921875,-31.25004959106445,851.5638427734375,574.2196655273438
917.8990478515624,848.8098754882812,-31.25004959106445,851.5638427734375,574.2196655273438
880.064453125,822.4901733398438,-31.25004959106445,851.5638427734375,574.2196655273438
893.2243041992188,878.4194946289062,-11.718768119812012,812.5012817382812,589.8446655273438
896.5142822265625,888.2893676757812,-11.718768119812012,812.5012817382812,589.8446655273438
917.8990478515624,875.1295166015625,-23.437536239624023,820.3137817382812,578.1259155273438
926.1239624023438,901.44921875,-31.25004959106445,859.3763427734375,578.1259155273438
837.2949829101562,875.1295166015625,-42.96881866455078,847.6575927734375,585.9384155273438
837.2949829101562,875.1295166015625,-35.15630340576172,847.6575927734375,589.8446655273438
837.2949829101562,875.1295166015625,-35.15630340576172,859.3763427734375,585.9384155273438
853.7448120117188,908.0291748046876,-35.15630340576172,859.3763427734375,585.9384155273438
903.09423828125,957.3785400390624,-35.15630340576172,859.3763427734375,585.9384155273438
893.2243041992188,917.8990478515624,-39.06256103515625,828.1262817382812,582.0321655273438
876.7745361328125,891.579345703125,-39.06256103515625,828.1262817382812,582.0321655273438
912.964111328125,968.8934326171876,-19.531280517578125,863.2825927734375,582.0321655273438
878.4194946289062,863.6146850585938,-19.531280517578125,863.2825927734375,582.0321655273438
880.064453125,837.2949829101562,-27.343791961669922,847.6575927734375,578.1259155273438
916.2540283203124,893.2243041992188,-23.437536239624023,832.0325317382812,574.2196655273438
919.5440063476562,906.3841552734376,-23.437536239624023,832.0325317382812,574.2196655273438
922.833984375,932.703857421875,-23.437536239624023,851.5638427734375,570.3134155273438
929.4138793945312,926.1239624023438,-23.437536239624023,851.5638427734375,570.3134155273438
914.6090698242188,881.70947265625,-15.625024795532227,851.5638427734375,578.1259155273438
894.8693237304688,848.8098754882812,3.9062561988830566,808.5950317382812,593.7509155273438
901.44921875,822.4901733398438,-7.812512397766112,824.2200317382812,597.6571655273438
868.5496215820312,769.850830078125,31.25004959106445,851.5638427734375,597.6571655273438
880.064453125,848.8098754882812,23.437536239624023,875.0013427734375,570.3134155273438
840.5849609375,786.3005981445312,23.437536239624023,875.0013427734375,566.4071655273438
837.2949829101562,787.945556640625,19.531280517578125,882.8139038085938,550.7821044921875
850.454833984375,792.8805541992188,42.96881866455078,867.1888427734375,531.2508544921875
893.2243041992188,881.70947265625,50.78133010864258,847.6575927734375,519.5320434570311
893.2243041992188,881.70947265625,89.84388732910156,855.4700927734375,507.81329345703125
866.9046630859375,829.070068359375,89.84388732910156,855.4700927734375,507.81329345703125
871.839599609375,829.070068359375,82.03137969970703,863.2825927734375,519.5320434570311
871.839599609375,829.070068359375,85.93763732910156,847.6575927734375,523.4382934570311
855.3897705078125,802.7504272460938,85.93763732910156,847.6575927734375,523.4382934570311
863.6146850585938,829.070068359375,85.93763732910156,863.2825927734375,531.2508544921875
881.70947265625,884.9994506835938,62.5000991821289,875.0013427734375,535.1571044921875
835.6500244140625,832.3600463867188,62.5000991821289,875.0013427734375,535.1571044921875
814.2652587890625,812.6203002929688,62.5000991821289,875.0013427734375,535.1571044921875
876.7745361328125,871.839599609375,70.31260681152344,859.3763427734375,542.9696044921875
820.84521484375,819.2001953125,74.21886444091797,890.6264038085938,554.6883544921875
820.84521484375,819.2001953125,50.78133010864258,878.9076538085938,535.1571044921875
815.9102783203125,819.2001953125,50.78133010864258,878.9076538085938,535.1571044921875
815.9102783203125,792.8805541992188,50.78133010864258,878.9076538085938,535.1571044921875
866.9046630859375,898.1592407226562,23.437536239624023,867.1888427734375,515.6257934570311
778.07568359375,740.2411499023438,23.437536239624023,859.3763427734375,519.5320434570311
771.4957885742188,792.8805541992188,27.343791961669922,863.2825927734375,515.6257934570311
810.9752807617188,792.8805541992188,35.15630340576172,875.0013427734375,523.4382934570311
810.9752807617188,792.8805541992188,39.06256103515625,882.8139038085938,519.5320434570311
820.84521484375,884.9994506835938,-132.81271362304688,964.8452758789062,347.65679931640625
812.6203002929688,889.9343872070312,-132.81271362304688,964.8452758789062,347.65679931640625
835.6500244140625,873.4845581054688,-148.43772888183594,953.12646484375,339.8442687988281
835.6500244140625,904.7391967773438,-144.53147888183594,968.7515258789062,335.9380187988281
840.5849609375,886.6444091796875,-144.53147888183594,968.7515258789062,335.9380187988281
853.7448120117188,884.9994506835938,-144.53147888183594,968.7515258789062,335.9380187988281
857.0347290039062,894.8693237304688,-156.250244140625,960.9390258789062,332.0317687988281
853.7448120117188,891.579345703125,-156.250244140625,960.9390258789062,332.0317687988281
860.32470703125,893.2243041992188,-160.156494140625,957.0327758789062,328.1255187988281
858.6797485351562,894.8693237304688,-167.96900939941406,968.7515258789062,320.31298828125
861.9697265625,889.9343872070312,-167.96900939941406,968.7515258789062,320.31298828125
848.8098754882812,898.1592407226562,-167.96900939941406,933.59521484375,320.31298828125
871.839599609375,884.9994506835938,-183.5940399169922,945.31396484375,316.40673828125
868.5496215820312,878.4194946289062,-167.96900939941406,949.22021484375,316.40673828125
875.1295166015625,884.9994506835938,-175.78152465820312,949.22021484375,320.31298828125
817.5552368164062,898.1592407226562,-187.5002899169922,953.12646484375,316.40673828125
796.1704711914062,896.5142822265625,-203.1253204345703,960.9390258789062,332.0317687988281
834.0050048828125,889.9343872070312,-214.84408569335938,937.50146484375,335.9380187988281
855.3897705078125,901.44921875,-210.93783569335938,949.22021484375,335.9380187988281
861.9697265625,886.6444091796875,-210.93783569335938,949.22021484375,335.9380187988281
848.8098754882812,880.064453125,-207.0315704345703,929.68896484375,339.8442687988281
847.1648559570312,884.9994506835938,-207.0315704345703,929.68896484375,351.56304931640625
847.1648559570312,884.9994506835938,-214.84408569335938,914.0639038085938,339.8442687988281
847.1648559570312,884.9994506835938,-187.5002899169922,929.68896484375,351.56304931640625
850.454833984375,878.4194946289062,-187.5002899169922,929.68896484375,351.56304931640625
876.7745361328125,870.194580078125,-70.31260681152344,964.8452758789062,394.5318603515625
883.3544311523438,894.8693237304688,-70.31260681152344,964.8452758789062,394.5318603515625
893.2243041992188,908.0291748046876,-187.5002899169922,992.1890258789062,367.1880798339844
893.2243041992188,873.4845581054688,-195.31280517578125,972.6577758789062,378.9068298339844
861.9697265625,842.2299194335938,-113.28142547607422,871.0950927734375,382.8131103515625
861.9697265625,842.2299194335938,-50.78133010864258,894.5326538085938,402.3443908691406
873.4845581054688,860.32470703125,-35.15630340576172,953.12646484375,406.2506408691406
893.2243041992188,937.6387939453124,-93.7501449584961,917.97021484375,402.3443908691406
850.454833984375,904.7391967773438,-93.7501449584961,917.97021484375,402.3443908691406
850.454833984375,903.09423828125,-93.7501449584961,917.97021484375,402.3443908691406
825.7801513671875,873.4845581054688,-89.84388732910156,976.5640258789062,457.0319519042969
809.330322265625,769.850830078125,-89.84388732910156,976.5640258789062,457.0319519042969
799.46044921875,781.3656616210938,-89.84388732910156,976.5640258789062,457.0319519042969
789.590576171875,753.4010009765625,-210.93783569335938,890.6264038085938,406.2506408691406
796.1704711914062,776.4307250976562,-226.56285095214844,882.8139038085938,417.9693908691406
796.1704711914062,776.4307250976562,-234.3753662109375,882.8139038085938,429.6881713867188
789.590576171875,784.6556396484375,-234.3753662109375,882.8139038085938,429.6881713867188
797.8154907226562,781.3656616210938,-234.3753662109375,882.8139038085938,429.6881713867188
801.1054077148438,809.330322265625,-253.9066467285156,898.4389038085938,464.844482421875
820.84521484375,837.2949829101562,-257.81289672851557,906.2514038085938,464.844482421875
802.7504272460938,819.2001953125,-265.6254272460937,906.2514038085938,480.4695129394531
807.6853637695312,817.5552368164062,-265.6254272460937,906.2514038085938,480.4695129394531
806.0403442382812,815.9102783203125,-265.6254272460937,906.2514038085938,480.4695129394531
806.0403442382812,815.9102783203125,-230.4691162109375,910.1576538085938,480.4695129394531
794.5255126953125,815.9102783203125,-230.4691162109375,910.1576538085938,480.4695129394531
792.8805541992188,817.5552368164062,-222.65660095214844,832.0325317382812,464.844482421875
786.3005981445312,827.4251098632812,-222.65660095214844,832.0325317382812,464.844482421875
753.4010009765625,832.3600463867188,-222.65660095214844,832.0325317382812,464.844482421875
733.6612548828125,827.4251098632812,-175.78152465820312,925.78271484375,476.563232421875
733.6612548828125,827.4251098632812,-179.68777465820312,882.8139038085938,460.938232421875
741.8861083984375,834.0050048828125,-179.68777465820312,882.8139038085938,460.938232421875
738.59619140625,825.7801513671875,-179.68777465820312,882.8139038085938,460.938232421875
789.590576171875,830.715087890625,-121.09394073486328,910.1576538085938,445.3132019042969
814.2652587890625,840.5849609375,-85.93763732910156,886.7201538085938,441.4069519042969
814.2652587890625,840.5849609375,-74.21886444091797,882.8139038085938,445.3132019042969
812.6203002929688,843.8749389648438,-50.78133010864258,902.3451538085938,457.0319519042969
829.070068359375,855.3897705078125,-50.78133010864258,902.3451538085938,457.0319519042969
840.5849609375,863.6146850585938,-11.718768119812012,925.78271484375,476.563232421875
858.6797485351562,820.84521484375,-35.15630340576172,902.3451538085938,457.0319519042969
937.6387939453124,835.6500244140625,-15.625024795532227,910.1576538085938,460.938232421875
889.9343872070312,842.2299194335938,7.812512397766112,914.0639038085938,476.563232421875
870.194580078125,866.9046630859375,-3.9062561988830566,929.68896484375,480.4695129394531
870.194580078125,866.9046630859375,23.437536239624023,933.59521484375,492.1882629394531
827.4251098632812,850.454833984375,23.437536239624023,933.59521484375,492.1882629394531
880.064453125,911.319091796875,31.25004959106445,902.3451538085938,480.4695129394531
878.4194946289062,908.0291748046876,42.96881866455078,898.4389038085938,472.656982421875
883.3544311523438,850.454833984375,42.96881866455078,898.4389038085938,472.656982421875
889.9343872070312,865.2596435546875,46.87507247924805,906.2514038085938,468.750732421875
871.839599609375,843.8749389648438,15.625024795532227,917.97021484375,441.4069519042969
847.1648559570312,861.9697265625,15.625024795532227,921.87646484375,445.3132019042969
832.3600463867188,860.32470703125,15.625024795532227,921.87646484375,445.3132019042969
824.1351318359375,853.7448120117188,3.9062561988830566,902.3451538085938,457.0319519042969
814.2652587890625,840.5849609375,3.9062561988830566,902.3451538085938,457.0319519042969
809.330322265625,835.6500244140625,23.437536239624023,906.2514038085938,468.750732421875
809.330322265625,835.6500244140625,27.343791961669922,914.0639038085938,472.656982421875
806.0403442382812,810.9752807617188,27.343791961669922,914.0639038085938,472.656982421875
812.6203002929688,807.6853637695312,27.343791961669922,914.0639038085938,460.938232421875
806.0403442382812,801.1054077148438,11.718768119812012,914.0639038085938,457.0319519042969
807.6853637695312,819.2001953125,11.718768119812012,914.0639038085938,457.0319519042969
825.7801513671875,837.2949829101562,35.15630340576172,902.3451538085938,453.1257019042969
838.9400024414062,847.1648559570312,27.343791961669922,933.59521484375,441.4069519042969
838.9400024414062,847.1648559570312,31.25004959106445,941.40771484375,437.5006713867188
827.4251098632812,834.0050048828125,35.15630340576172,917.97021484375,433.5944213867188
819.2001953125,845.5198974609375,-3.9062561988830566,917.97021484375,429.6881713867188
817.5552368164062,832.3600463867188,35.15630340576172,933.59521484375,425.7819213867188
817.5552368164062,832.3600463867188,-7.812512397766112,941.40771484375,398.4381103515625
822.4901733398438,827.4251098632812,-7.812512397766112,941.40771484375,398.4381103515625
812.6203002929688,825.7801513671875,0.0,937.50146484375,382.8131103515625
814.2652587890625,815.9102783203125,0.0,937.50146484375,382.8131103515625
820.84521484375,809.330322265625,-35.15630340576172,976.5640258789062,351.56304931640625
820.84521484375,809.330322265625,-3.9062561988830566,972.6577758789062,339.8442687988281
809.330322265625,807.6853637695312,-3.9062561988830566,972.6577758789062,339.8442687988281
825.7801513671875,822.4901733398438,0.0,976.5640258789062,328.1255187988281
825.7801513671875,822.4901733398438,-3.9062561988830566,1000.0015869140624,316.40673828125
837.2949829101562,829.070068359375,-3.9062561988830566,1000.0015869140624,316.40673828125
835.6500244140625,837.2949829101562,31.25004959106445,941.40771484375,308.59423828125
840.5849609375,832.3600463867188,39.06256103515625,957.0327758789062,304.68798828125
840.5849609375,843.8749389648438,35.15630340576172,976.5640258789062,289.0629577636719
829.070068359375,830.715087890625,54.687583923339844,984.3765258789062,277.3441772460937
824.1351318359375,827.4251098632812,50.78133010864258,1000.0015869140624,261.71914672851557
824.1351318359375,829.070068359375,50.78133010864258,1000.0015869140624,261.71914672851557
840.5849609375,838.9400024414062,125.0001983642578,988.2827758789062,242.18788146972656
863.6146850585938,835.6500244140625,183.5940399169922,964.8452758789062,230.4691162109375
837.2949829101562,853.7448120117188,191.40655517578125,972.6577758789062,238.2816162109375
860.32470703125,884.9994506835938,199.21905517578125,941.40771484375,246.09413146972656
858.6797485351562,871.839599609375,191.40655517578125,945.31396484375,246.09413146972656
880.064453125,888.2893676757812,218.75033569335938,949.22021484375,269.5316772460937
863.6146850585938,866.9046630859375,250.0003967285156,984.3765258789062,277.3441772460937
868.5496215820312,878.4194946289062,250.0003967285156,996.0953369140624,277.3441772460937
881.70947265625,868.5496215820312,250.0003967285156,996.0953369140624,277.3441772460937
942.57373046875,909.6741333007812,281.2504272460937,906.2514038085938,308.59423828125
909.6741333007812,898.1592407226562,281.2504272460937,929.68896484375,324.2192687988281
909.6741333007812,898.1592407226562,281.2504272460937,929.68896484375,328.1255187988281
899.8042602539062,861.9697265625,281.2504272460937,929.68896484375,328.1255187988281
901.44921875,857.0347290039062,285.1567077636719,929.68896484375,332.0317687988281
889.9343872070312,794.5255126953125,238.2816162109375,910.1576538085938,328.1255187988281
889.9343872070312,794.5255126953125,246.09413146972656,917.97021484375,332.0317687988281
878.4194946289062,783.0106201171875,246.09413146972656,917.97021484375,332.0317687988281
852.0997924804688,812.6203002929688,238.2816162109375,921.87646484375,339.8442687988281
850.454833984375,807.6853637695312,238.2816162109375,921.87646484375,339.8442687988281
858.6797485351562,810.9752807617188,238.2816162109375,937.50146484375,343.75054931640625
863.6146850585938,837.2949829101562,238.2816162109375,937.50146484375,343.75054931640625
863.6146850585938,837.2949829101562,222.65660095214844,914.0639038085938,347.65679931640625
861.9697265625,838.9400024414062,222.65660095214844,914.0639038085938,347.65679931640625
858.6797485351562,870.194580078125,214.84408569335938,925.78271484375,355.46929931640625
858.6797485351562,870.194580078125,234.3753662109375,937.50146484375,359.37554931640625
847.1648559570312,899.8042602539062,234.3753662109375,937.50146484375,359.37554931640625
837.2949829101562,870.194580078125,207.0315704345703,929.68896484375,347.65679931640625
832.3600463867188,868.5496215820312,207.0315704345703,929.68896484375,347.65679931640625
825.7801513671875,863.6146850585938,222.65660095214844,906.2514038085938,359.37554931640625
832.3600463867188,830.715087890625,199.21905517578125,914.0639038085938,355.46929931640625
842.2299194335938,830.715087890625,203.1253204345703,910.1576538085938,375.0005798339844
845.5198974609375,830.715087890625,218.75033569335938,917.97021484375,382.8131103515625
843.8749389648438,832.3600463867188,218.75033569335938,917.97021484375,382.8131103515625
855.3897705078125,847.1648559570312,199.21905517578125,929.68896484375,394.5318603515625
855.3897705078125,843.8749389648438,199.21905517578125,945.31396484375,398.4381103515625
870.194580078125,860.32470703125,199.21905517578125,945.31396484375,398.4381103515625
870.194580078125,847.1648559570312,207.0315704345703,917.97021484375,402.3443908691406
926.1239624023438,861.9697265625,207.0315704345703,917.97021484375,402.3443908691406
937.6387939453124,868.5496215820312,195.31280517578125,917.97021484375,398.4381103515625
937.6387939453124,868.5496215820312,207.0315704345703,933.59521484375,406.2506408691406
888.2893676757812,868.5496215820312,191.40655517578125,933.59521484375,363.2818298339844
758.3359375,842.2299194335938,179.68777465820312,945.31396484375,355.46929931640625
725.4363403320312,838.9400024414062,121.09394073486328,953.12646484375,335.9380187988281
763.2708740234375,835.6500244140625,121.09394073486328,953.12646484375,335.9380187988281
756.6909790039062,835.6500244140625,121.09394073486328,953.12646484375,335.9380187988281
796.1704711914062,822.4901733398438,117.18768310546876,925.78271484375,335.9380187988281
796.1704711914062,822.4901733398438,121.09394073486328,941.40771484375,343.75054931640625
804.3953857421875,835.6500244140625,121.09394073486328,941.40771484375,343.75054931640625
820.84521484375,822.4901733398438,156.250244140625,945.31396484375,363.2818298339844
835.6500244140625,829.070068359375,140.62521362304688,921.87646484375,351.56304931640625
842.2299194335938,843.8749389648438,140.62521362304688,921.87646484375,351.56304931640625
850.454833984375,832.3600463867188,195.31280517578125,937.50146484375,371.0943298339844
853.7448120117188,837.2949829101562,195.31280517578125,937.50146484375,371.0943298339844
875.1295166015625,829.070068359375,210.93783569335938,945.31396484375,363.2818298339844
875.1295166015625,829.070068359375,218.75033569335938,945.31396484375,363.2818298339844
875.1295166015625,829.070068359375,210.93783569335938,933.59521484375,359.37554931640625
881.70947265625,827.4251098632812,210.93783569335938,933.59521484375,359.37554931640625
945.8637084960938,847.1648559570312,218.75033569335938,925.78271484375,351.56304931640625
927.7689208984376,875.1295166015625,230.4691162109375,933.59521484375,347.65679931640625
942.57373046875,868.5496215820312,226.56285095214844,921.87646484375,351.56304931640625
886.6444091796875,863.6146850585938,238.2816162109375,933.59521484375,355.46929931640625
868.5496215820312,855.3897705078125,238.2816162109375,933.59521484375,355.46929931640625
868.5496215820312,855.3897705078125,238.2816162109375,921.87646484375,355.46929931640625
861.9697265625,857.0347290039062,234.3753662109375,921.87646484375,355.46929931640625
858.6797485351562,843.8749389648438,210.93783569335938,929.68896484375,355.46929931640625
860.32470703125,840.5849609375,210.93783569335938,929.68896484375,355.46929931640625
825.7801513671875,822.4901733398438,210.93783569335938,929.68896484375,355.46929931640625
769.850830078125,802.7504272460938,160.156494140625,906.2514038085938,445.3132019042969
781.3656616210938,820.84521484375,160.156494140625,906.2514038085938,445.3132019042969
776.4307250976562,817.5552368164062,156.250244140625,910.1576538085938,445.3132019042969
786.3005981445312,822.4901733398438,156.250244140625,910.1576538085938,445.3132019042969
776.4307250976562,850.454833984375,156.250244140625,910.1576538085938,445.3132019042969
784.6556396484375,850.454833984375,148.43772888183594,902.3451538085938,453.1257019042969
804.3953857421875,871.839599609375,160.156494140625,910.1576538085938,460.938232421875
806.0403442382812,863.6146850585938,160.156494140625,906.2514038085938,453.1257019042969
806.0403442382812,863.6146850585938,160.156494140625,902.3451538085938,457.0319519042969
806.0403442382812,853.7448120117188,171.87527465820312,906.2514038085938,457.0319519042969
797.8154907226562,857.0347290039062,183.5940399169922,894.5326538085938,449.2194519042969
806.0403442382812,837.2949829101562,183.5940399169922,894.5326538085938,449.2194519042969
815.9102783203125,858.6797485351562,183.5940399169922,894.5326538085938,449.2194519042969
812.6203002929688,848.8098754882812,187.5002899169922,914.0639038085938,417.9693908691406
814.2652587890625,852.0997924804688,187.5002899169922,914.0639038085938,417.9693908691406
814.2652587890625,852.0997924804688,183.5940399169922,902.3451538085938,394.5318603515625
809.330322265625,834.0050048828125,175.78152465820312,890.6264038085938,371.0943298339844
810.9752807617188,838.9400024414062,175.78152465820312,890.6264038085938,371.0943298339844
810.9752807617188,827.4251098632812,222.65660095214844,921.87646484375,394.5318603515625
802.7504272460938,824.1351318359375,222.65660095214844,914.0639038085938,398.4381103515625
801.1054077148438,840.5849609375,222.65660095214844,914.0639038085938,398.4381103515625
776.4307250976562,858.6797485351562,203.1253204345703,921.87646484375,406.2506408691406
783.0106201171875,817.5552368164062,203.1253204345703,921.87646484375,406.2506408691406
802.7504272460938,829.070068359375,187.5002899169922,910.1576538085938,417.9693908691406
794.5255126953125,817.5552368164062,187.5002899169922,910.1576538085938,417.9693908691406
786.3005981445312,806.0403442382812,187.5002899169922,910.1576538085938,417.9693908691406
786.3005981445312,806.0403442382812,195.31280517578125,914.0639038085938,414.0631408691406
784.6556396484375,794.5255126953125,195.31280517578125,914.0639038085938,414.0631408691406
794.5255126953125,799.46044921875,195.31280517578125,914.0639038085938,414.0631408691406
797.8154907226562,806.0403442382812,183.5940399169922,914.0639038085938,406.2506408691406
802.7504272460938,774.7857666015625,183.5940399169922,914.0639038085938,410.1568908691406
806.0403442382812,796.1704711914062,183.5940399169922,914.0639038085938,410.1568908691406
810.9752807617188,804.3953857421875,191.40655517578125,902.3451538085938,406.2506408691406
819.2001953125,807.6853637695312,191.40655517578125,902.3451538085938,406.2506408691406
807.6853637695312,812.6203002929688,191.40655517578125,902.3451538085938,406.2506408691406
781.3656616210938,824.1351318359375,199.21905517578125,906.2514038085938,410.1568908691406
791.2355346679688,827.4251098632812,179.68777465820312,910.1576538085938,410.1568908691406
791.2355346679688,827.4251098632812,171.87527465820312,910.1576538085938,414.0631408691406
791.2355346679688,827.4251098632812,175.78152465820312,914.0639038085938,417.9693908691406
789.590576171875,827.4251098632812,175.78152465820312,914.0639038085938,417.9693908691406
797.8154907226562,857.0347290039062,175.78152465820312,910.1576538085938,421.8756713867188
799.46044921875,861.9697265625,171.87527465820312,917.97021484375,417.9693908691406
799.46044921875,857.0347290039062,171.87527465820312,917.97021484375,417.9693908691406
774.7857666015625,845.5198974609375,167.96900939941406,902.3451538085938,417.9693908691406
806.0403442382812,838.9400024414062,179.68777465820312,906.2514038085938,417.9693908691406
809.330322265625,843.8749389648438,179.68777465820312,906.2514038085938,417.9693908691406
814.2652587890625,855.3897705078125,191.40655517578125,906.2514038085938,437.5006713867188
815.9102783203125,852.0997924804688,156.250244140625,894.5326538085938,421.8756713867188
825.7801513671875,860.32470703125,156.250244140625,894.5326538085938,421.8756713867188
787.945556640625,868.5496215820312,160.156494140625,898.4389038085938,425.7819213867188
787.945556640625,868.5496215820312,171.87527465820312,898.4389038085938,433.5944213867188
787.945556640625,868.5496215820312,171.87527465820312,910.1576538085938,441.4069519042969
791.2355346679688,863.6146850585938,171.87527465820312,910.1576538085938,441.4069519042969
781.3656616210938,850.454833984375,171.87527465820312,910.1576538085938,441.4069519042969
748.466064453125,866.9046630859375,175.78152465820312,898.4389038085938,445.3132019042969
748.466064453125,865.2596435546875,175.78152465820312,898.4389038085938,445.3132019042969
748.466064453125,865.2596435546875,164.06275939941406,894.5326538085938,453.1257019042969
748.466064453125,875.1295166015625,164.06275939941406,894.5326538085938,453.1257019042969
756.6909790039062,873.4845581054688,164.06275939941406,894.5326538085938,453.1257019042969
746.8211059570312,860.32470703125,136.71896362304688,886.7201538085938,460.938232421875
861.9697265625,861.9697265625,140.62521362304688,902.3451538085938,484.3757629394531
822.4901733398438,827.4251098632812,132.81271362304688,929.68896484375,468.750732421875
829.070068359375,857.0347290039062,144.53147888183594,882.8139038085938,464.844482421875
822.4901733398438,855.3897705078125,144.53147888183594,882.8139038085938,464.844482421875
815.9102783203125,866.9046630859375,85.93763732910156,882.8139038085938,457.0319519042969
796.1704711914062,845.5198974609375,140.62521362304688,878.9076538085938,480.4695129394531
789.590576171875,829.070068359375,121.09394073486328,914.0639038085938,480.4695129394531
755.0459594726562,802.7504272460938,105.46891784667969,898.4389038085938,476.563232421875
751.7560424804688,807.6853637695312,105.46891784667969,898.4389038085938,476.563232421875
756.6909790039062,804.3953857421875,105.46891784667969,898.4389038085938,476.563232421875
722.1463623046875,786.3005981445312,70.31260681152344,867.1888427734375,488.2820129394531
722.1463623046875,786.3005981445312,50.78133010864258,886.7201538085938,476.563232421875
722.1463623046875,796.1704711914062,50.78133010864258,886.7201538085938,476.563232421875
733.6612548828125,819.2001953125,3.9062561988830566,824.2200317382812,562.5008544921875
707.341552734375,810.9752807617188,7.812512397766112,878.9076538085938,578.1259155273438
730.3712768554688,829.070068359375,-31.25004959106445,839.8450927734375,617.1884765625
794.5255126953125,827.4251098632812,-31.25004959106445,839.8450927734375,617.1884765625
766.5608520507812,812.6203002929688,-35.15630340576172,847.6575927734375,632.8134765625
766.5608520507812,812.6203002929688,-50.78133010864258,863.2825927734375,640.6259765625
903.09423828125,847.1648559570312,-58.59384155273438,835.9387817382812,636.7197265625
883.3544311523438,847.1648559570312,-70.31260681152344,863.2825927734375,636.7197265625
837.2949829101562,827.4251098632812,-46.87507247924805,855.4700927734375,636.7197265625
863.6146850585938,834.0050048828125,-105.46891784667969,863.2825927734375,558.5946044921875
858.6797485351562,825.7801513671875,-101.56266021728516,835.9387817382812,566.4071655273438
840.5849609375,834.0050048828125,-121.09394073486328,871.0950927734375,492.1882629394531
829.070068359375,835.6500244140625,-89.84388732910156,855.4700927734375,523.4382934570311
853.7448120117188,875.1295166015625,-89.84388732910156,855.4700927734375,523.4382934570311
868.5496215820312,894.8693237304688,-128.90644836425778,851.5638427734375,523.4382934570311
861.9697265625,884.9994506835938,-128.90644836425778,851.5638427734375,523.4382934570311
870.194580078125,896.5142822265625,-125.0001983642578,859.3763427734375,531.2508544921875
870.194580078125,896.5142822265625,-140.62521362304688,890.6264038085938,523.4382934570311
860.32470703125,893.2243041992188,-140.62521362304688,890.6264038085938,523.4382934570311
868.5496215820312,904.7391967773438,-140.62521362304688,890.6264038085938,523.4382934570311
853.7448120117188,898.1592407226562,-171.87527465820312,855.4700927734375,523.4382934570311
845.5198974609375,891.579345703125,-171.87527465820312,855.4700927734375,523.4382934570311
857.0347290039062,914.6090698242188,-156.250244140625,851.5638427734375,535.1571044921875
894.8693237304688,852.0997924804688,-156.250244140625,847.6575927734375,531.2508544921875
921.18896484375,845.5198974609375,-179.68777465820312,847.6575927734375,539.0633544921875
929.4138793945312,834.0050048828125,-187.5002899169922,847.6575927734375,558.5946044921875
929.4138793945312,834.0050048828125,-191.40655517578125,839.8450927734375,562.5008544921875
908.0291748046876,825.7801513671875,-203.1253204345703,820.3137817382812,562.5008544921875
916.2540283203124,817.5552368164062,-203.1253204345703,820.3137817382812,562.5008544921875
904.7391967773438,797.8154907226562,-203.1253204345703,820.3137817382812,562.5008544921875
884.9994506835938,781.3656616210938,-199.21905517578125,851.5638427734375,562.5008544921875
858.6797485351562,741.8861083984375,-199.21905517578125,851.5638427734375,562.5008544921875
875.1295166015625,756.6909790039062,-191.40655517578125,808.5950317382812,574.2196655273438
889.9343872070312,776.4307250976562,-191.40655517578125,808.5950317382812,574.2196655273438
901.44921875,814.2652587890625,-203.1253204345703,824.2200317382812,562.5008544921875
917.8990478515624,812.6203002929688,-203.1253204345703,824.2200317382812,562.5008544921875
911.319091796875,837.2949829101562,-203.1253204345703,820.3137817382812,566.4071655273438
889.9343872070312,810.9752807617188,-230.4691162109375,804.6887817382812,574.2196655273438
878.4194946289062,837.2949829101562,-230.4691162109375,804.6887817382812,574.2196655273438
878.4194946289062,837.2949829101562,-218.75033569335938,847.6575927734375,597.6571655273438
906.3841552734376,814.2652587890625,-218.75033569335938,847.6575927734375,597.6571655273438
880.064453125,814.2652587890625,-207.0315704345703,828.1262817382812,613.2822265625
944.2186889648438,857.0347290039062,-210.93783569335938,792.969970703125,605.4697265625
950.7986450195312,835.6500244140625,-210.93783569335938,792.969970703125,605.4697265625
931.0588989257812,820.84521484375,-210.93783569335938,792.969970703125,605.4697265625
922.833984375,822.4901733398438,-207.0315704345703,820.3137817382812,609.3759765625
914.6090698242188,817.5552368164062,-210.93783569335938,824.2200317382812,617.1884765625
914.6090698242188,817.5552368164062,-210.93783569335938,828.1262817382812,613.2822265625
912.964111328125,817.5552368164062,-214.84408569335938,828.1262817382812,609.3759765625
909.6741333007812,863.6146850585938,-207.0315704345703,792.969970703125,609.3759765625
921.18896484375,824.1351318359375,-203.1253204345703,792.969970703125,597.6571655273438
932.703857421875,832.3600463867188,-203.1253204345703,792.969970703125,597.6571655273438
935.9938354492188,810.9752807617188,-214.84408569335938,808.5950317382812,562.5008544921875
911.319091796875,806.0403442382812,-214.84408569335938,808.5950317382812,562.5008544921875
927.7689208984376,820.84521484375,-214.84408569335938,863.2825927734375,550.7821044921875
896.5142822265625,825.7801513671875,-218.75033569335938,820.3137817382812,550.7821044921875
911.319091796875,820.84521484375,-218.75033569335938,820.3137817382812,550.7821044921875
909.6741333007812,827.4251098632812,-187.5002899169922,847.6575927734375,546.8758544921875
921.18896484375,838.9400024414062,-187.5002899169922,847.6575927734375,546.8758544921875
927.7689208984376,832.3600463867188,-187.5002899169922,847.6575927734375,546.8758544921875
893.2243041992188,835.6500244140625,-218.75033569335938,820.3137817382812,550.7821044921875
893.2243041992188,835.6500244140625,-222.65660095214844,835.9387817382812,558.5946044921875
912.964111328125,857.0347290039062,-222.65660095214844,835.9387817382812,558.5946044921875
908.0291748046876,838.9400024414062,-222.65660095214844,835.9387817382812,558.5946044921875
909.6741333007812,852.0997924804688,-214.84408569335938,855.4700927734375,562.5008544921875
888.2893676757812,838.9400024414062,-203.1253204345703,839.8450927734375,558.5946044921875
888.2893676757812,838.9400024414062,-199.21905517578125,828.1262817382812,550.7821044921875
888.2893676757812,838.9400024414062,-183.5940399169922,828.1262817382812,554.6883544921875
886.6444091796875,847.1648559570312,-183.5940399169922,828.1262817382812,554.6883544921875
883.3544311523438,845.5198974609375,-160.156494140625,867.1888427734375,554.6883544921875
886.6444091796875,819.2001953125,-160.156494140625,867.1888427734375,554.6883544921875
912.964111328125,799.46044921875,-171.87527465820312,835.9387817382812,531.2508544921875
926.1239624023438,814.2652587890625,-167.96900939941406,828.1262817382812,546.8758544921875
926.1239624023438,814.2652587890625,-171.87527465820312,824.2200317382812,589.8446655273438
926.1239624023438,814.2652587890625,-191.40655517578125,835.9387817382812,601.5634155273438
912.964111328125,797.8154907226562,-191.40655517578125,835.9387817382812,601.5634155273438
906.3841552734376,794.5255126953125,-191.40655517578125,835.9387817382812,601.5634155273438
899.8042602539062,820.84521484375,-199.21905517578125,820.3137817382812,628.9072265625
896.5142822265625,812.6203002929688,-203.1253204345703,824.2200317382812,628.9072265625
865.2596435546875,801.1054077148438,-203.1253204345703,824.2200317382812,628.9072265625
880.064453125,809.330322265625,-195.31280517578125,804.6887817382812,621.0947265625
893.2243041992188,819.2001953125,-195.31280517578125,804.6887817382812,621.0947265625
891.579345703125,812.6203002929688,-203.1253204345703,800.7825317382812,601.5634155273438
871.839599609375,794.5255126953125,-234.3753662109375,765.626220703125,585.9384155273438
884.9994506835938,802.7504272460938,-234.3753662109375,765.626220703125,585.9384155273438
878.4194946289062,763.2708740234375,-250.0003967285156,703.1260986328125,597.6571655273438
940.9287719726562,837.2949829101562,-250.0003967285156,703.1260986328125,597.6571655273438
926.1239624023438,814.2652587890625,-234.3753662109375,734.3761596679688,660.1572875976562
950.7986450195312,914.6090698242188,-238.2816162109375,742.1886596679688,695.3135986328125
950.7986450195312,914.6090698242188,-250.0003967285156,765.626220703125,722.6574096679688
950.7986450195312,901.44921875,-250.0003967285156,765.626220703125,722.6574096679688
950.7986450195312,898.1592407226562,-277.3441772460937,750.0011596679688,742.1886596679688
935.9938354492188,954.088623046875,-296.8754577636719,664.0635375976562,734.3761596679688
935.9938354492188,954.088623046875,-289.0629577636719,664.0635375976562,750.0011596679688
935.9938354492188,957.3785400390624,-281.2504272460937,667.9697875976562,753.9074096679688
912.964111328125,908.0291748046876,-281.2504272460937,667.9697875976562,753.9074096679688
881.70947265625,860.32470703125,-285.1567077636719,679.6885375976562,746.0949096679688
845.5198974609375,817.5552368164062,-285.1567077636719,687.5010986328125,746.0949096679688
845.5198974609375,817.5552368164062,-285.1567077636719,695.3135986328125,738.2824096679688
853.7448120117188,868.5496215820312,-285.1567077636719,691.4073486328125,738.2824096679688
768.205810546875,863.6146850585938,-257.81289672851557,691.4073486328125,664.0635375976562
725.4363403320312,832.3600463867188,-257.81289672851557,691.4073486328125,664.0635375976562
708.9865112304688,787.945556640625,-261.71914672851557,636.7197265625,628.9072265625
710.6315307617188,750.1110229492188,-261.71914672851557,636.7197265625,628.9072265625
699.1166381835938,725.4363403320312,-218.75033569335938,738.2824096679688,687.5010986328125
717.21142578125,728.726318359375,-343.75054931640625,605.4697265625,738.2824096679688
710.6315307617188,809.330322265625,-378.9068298339844,582.0321655273438,750.0011596679688
801.1054077148438,820.84521484375,-519.5320434570311,617.1884765625,664.0635375976562
796.1704711914062,827.4251098632812,-523.4382934570311,636.7197265625,656.2510375976562
830.715087890625,832.3600463867188,-523.4382934570311,636.7197265625,656.2510375976562
866.9046630859375,837.2949829101562,-500.00079345703125,621.0947265625,687.5010986328125
866.9046630859375,837.2949829101562,-449.2194519042969,714.8448486328125,660.1572875976562
888.2893676757812,827.4251098632812,-449.2194519042969,714.8448486328125,660.1572875976562
880.064453125,845.5198974609375,-378.9068298339844,703.1260986328125,695.3135986328125
880.064453125,845.5198974609375,-375.0005798339844,687.5010986328125,687.5010986328125
883.3544311523438,853.7448120117188,-375.0005798339844,687.5010986328125,687.5010986328125
852.0997924804688,860.32470703125,-394.5318603515625,687.5010986328125,648.4385375976562
804.3953857421875,741.8861083984375,74.21886444091797,796.876220703125,621.0947265625
806.0403442382812,758.3359375,128.90644836425778,824.2200317382812,636.7197265625
797.8154907226562,743.5311279296875,128.90644836425778,824.2200317382812,636.7197265625
786.3005981445312,735.3062133789062,93.7501449584961,808.5950317382812,609.3759765625
830.715087890625,791.2355346679688,128.90644836425778,808.5950317382812,636.7197265625
787.945556640625,807.6853637695312,97.65640258789062,863.2825927734375,621.0947265625
781.3656616210938,807.6853637695312,97.65640258789062,863.2825927734375,621.0947265625
779.720703125,824.1351318359375,89.84388732910156,832.0325317382812,578.1259155273438
817.5552368164062,838.9400024414062,113.28142547607422,832.0325317382812,582.0321655273438
809.330322265625,810.9752807617188,78.1251220703125,832.0325317382812,562.5008544921875
812.6203002929688,807.6853637695312,89.84388732910156,835.9387817382812,566.4071655273438
812.6203002929688,820.84521484375,82.03137969970703,847.6575927734375,550.7821044921875
802.7504272460938,810.9752807617188,70.31260681152344,851.5638427734375,554.6883544921875
802.7504272460938,801.1054077148438,62.5000991821289,855.4700927734375,523.4382934570311
802.7504272460938,801.1054077148438,50.78133010864258,855.4700927734375,519.5320434570311
809.330322265625,825.7801513671875,50.78133010864258,855.4700927734375,519.5320434570311
817.5552368164062,834.0050048828125,54.687583923339844,855.4700927734375,523.4382934570311
814.2652587890625,829.070068359375,50.78133010864258,867.1888427734375,519.5320434570311
802.7504272460938,852.0997924804688,50.78133010864258,867.1888427734375,519.5320434570311
827.4251098632812,840.5849609375,46.87507247924805,851.5638427734375,523.4382934570311
827.4251098632812,840.5849609375,78.1251220703125,871.0950927734375,523.4382934570311
842.2299194335938,843.8749389648438,78.1251220703125,871.0950927734375,523.4382934570311
842.2299194335938,855.3897705078125,66.40635681152344,828.1262817382812,550.7821044921875
842.2299194335938,855.3897705078125,54.687583923339844,882.8139038085938,562.5008544921875
842.2299194335938,847.1648559570312,54.687583923339844,882.8139038085938,562.5008544921875
843.8749389648438,848.8098754882812,62.5000991821289,863.2825927734375,539.0633544921875
827.4251098632812,891.579345703125,78.1251220703125,878.9076538085938,550.7821044921875
863.6146850585938,855.3897705078125,74.21886444091797,863.2825927734375,554.6883544921875
845.5198974609375,799.46044921875,74.21886444091797,863.2825927734375,554.6883544921875
868.5496215820312,806.0403442382812,82.03137969970703,847.6575927734375,570.3134155273438
894.8693237304688,794.5255126953125,74.21886444091797,851.5638427734375,570.3134155273438
893.2243041992188,799.46044921875,93.7501449584961,847.6575927734375,570.3134155273438
850.454833984375,812.6203002929688,85.93763732910156,843.7513427734375,570.3134155273438
810.9752807617188,822.4901733398438,89.84388732910156,847.6575927734375,562.5008544921875
822.4901733398438,848.8098754882812,85.93763732910156,832.0325317382812,574.2196655273438
829.070068359375,853.7448120117188,105.46891784667969,863.2825927734375,582.0321655273438
863.6146850585938,812.6203002929688,117.18768310546876,863.2825927734375,582.0321655273438
863.6146850585938,812.6203002929688,101.56266021728516,847.6575927734375,566.4071655273438
855.3897705078125,801.1054077148438,101.56266021728516,847.6575927734375,566.4071655273438
847.1648559570312,810.9752807617188,101.56266021728516,847.6575927734375,566.4071655273438
847.1648559570312,810.9752807617188,97.65640258789062,820.3137817382812,558.5946044921875
865.2596435546875,822.4901733398438,97.65640258789062,820.3137817382812,558.5946044921875
893.2243041992188,815.9102783203125,113.28142547607422,878.9076538085938,578.1259155273438
893.2243041992188,815.9102783203125,105.46891784667969,847.6575927734375,582.0321655273438
876.7745361328125,891.579345703125,97.65640258789062,804.6887817382812,593.7509155273438
881.70947265625,899.8042602539062,97.65640258789062,804.6887817382812,593.7509155273438
880.064453125,899.8042602539062,101.56266021728516,859.3763427734375,574.2196655273438
873.4845581054688,852.0997924804688,125.0001983642578,828.1262817382812,578.1259155273438
873.4845581054688,852.0997924804688,121.09394073486328,835.9387817382812,582.0321655273438
850.454833984375,847.1648559570312,109.37516784667969,859.3763427734375,570.3134155273438
837.2949829101562,817.5552368164062,97.65640258789062,847.6575927734375,566.4071655273438
837.2949829101562,817.5552368164062,97.65640258789062,808.5950317382812,562.5008544921875
835.6500244140625,797.8154907226562,97.65640258789062,808.5950317382812,562.5008544921875
848.8098754882812,822.4901733398438,97.65640258789062,808.5950317382812,562.5008544921875
850.454833984375,814.2652587890625,70.31260681152344,812.5012817382812,589.8446655273438
853.7448120117188,822.4901733398438,70.31260681152344,812.5012817382812,589.8446655273438
876.7745361328125,791.2355346679688,82.03137969970703,832.0325317382812,605.4697265625
876.7745361328125,784.6556396484375,74.21886444091797,812.5012817382812,609.3759765625
881.70947265625,865.2596435546875,74.21886444091797,812.5012817382812,609.3759765625
899.8042602539062,881.70947265625,74.21886444091797,855.4700927734375,609.3759765625
899.8042602539062,871.839599609375,74.21886444091797,855.4700927734375,609.3759765625
911.319091796875,962.3134765625,70.31260681152344,843.7513427734375,628.9072265625
912.964111328125,972.1834106445312,58.59384155273438,855.4700927734375,601.5634155273438
917.8990478515624,957.3785400390624,66.40635681152344,843.7513427734375,589.8446655273438
917.8990478515624,957.3785400390624,50.78133010864258,824.2200317382812,578.1259155273438
917.8990478515624,957.3785400390624,46.87507247924805,820.3137817382812,570.3134155273438
949.1536865234376,960.6685180664062,46.87507247924805,820.3137817382812,570.3134155273438
932.703857421875,950.7986450195312,46.87507247924805,820.3137817382812,570.3134155273438
842.2299194335938,931.0588989257812,46.87507247924805,820.3137817382812,570.3134155273438
858.6797485351562,937.6387939453124,42.96881866455078,824.2200317382812,570.3134155273438
843.8749389648438,908.0291748046876,42.96881866455078,824.2200317382812,570.3134155273438
863.6146850585938,903.09423828125,74.21886444091797,871.0950927734375,527.3446044921875
842.2299194335938,908.0291748046876,74.21886444091797,871.0950927734375,527.3446044921875
878.4194946289062,975.4733276367188,62.5000991821289,851.5638427734375,570.3134155273438
888.2893676757812,955.7335815429688,85.93763732910156,882.8139038085938,574.2196655273438
914.6090698242188,848.8098754882812,78.1251220703125,832.0325317382812,574.2196655273438
926.1239624023438,824.1351318359375,78.1251220703125,832.0325317382812,574.2196655273438
945.8637084960938,819.2001953125,66.40635681152344,835.9387817382812,566.4071655273438
944.2186889648438,815.9102783203125,85.93763732910156,867.1888427734375,570.3134155273438
944.2186889648438,807.6853637695312,85.93763732910156,867.1888427734375,570.3134155273438
858.6797485351562,794.5255126953125,82.03137969970703,824.2200317382812,562.5008544921875
806.0403442382812,801.1054077148438,82.03137969970703,824.2200317382812,562.5008544921875
720.5014038085938,822.4901733398438,70.31260681152344,828.1262817382812,562.5008544921875
901.44921875,860.32470703125,85.93763732910156,847.6575927734375,574.2196655273438
898.1592407226562,870.194580078125,85.93763732910156,847.6575927734375,574.2196655273438
886.6444091796875,824.1351318359375,82.03137969970703,851.5638427734375,566.4071655273438
886.6444091796875,824.1351318359375,85.93763732910156,832.0325317382812,574.2196655273438
889.9343872070312,881.70947265625,85.93763732910156,832.0325317382812,574.2196655273438
860.32470703125,886.6444091796875,78.1251220703125,835.9387817382812,597.6571655273438
832.3600463867188,866.9046630859375,82.03137969970703,800.7825317382812,605.4697265625
834.0050048828125,860.32470703125,97.65640258789062,816.4075317382812,617.1884765625
783.0106201171875,843.8749389648438,42.96881866455078,812.5012817382812,582.0321655273438
898.1592407226562,853.7448120117188,42.96881866455078,812.5012817382812,582.0321655273438
932.703857421875,829.070068359375,93.7501449584961,812.5012817382812,613.2822265625
932.703857421875,829.070068359375,82.03137969970703,820.3137817382812,601.5634155273438
922.833984375,847.1648559570312,82.03137969970703,820.3137817382812,601.5634155273438
904.7391967773438,819.2001953125,66.40635681152344,800.7825317382812,585.9384155273438
850.454833984375,822.4901733398438,66.40635681152344,800.7825317382812,585.9384155273438
840.5849609375,827.4251098632812,78.1251220703125,832.0325317382812,589.8446655273438
787.945556640625,842.2299194335938,78.1251220703125,832.0325317382812,589.8446655273438
733.6612548828125,834.0050048828125,54.687583923339844,820.3137817382812,582.0321655273438
764.9158325195312,830.715087890625,66.40635681152344,824.2200317382812,582.0321655273438
764.9158325195312,830.715087890625,70.31260681152344,835.9387817382812,585.9384155273438
792.8805541992188,829.070068359375,54.687583923339844,824.2200317382812,582.0321655273438
815.9102783203125,835.6500244140625,66.40635681152344,832.0325317382812,593.7509155273438
865.2596435546875,812.6203002929688,54.687583923339844,847.6575927734375,593.7509155273438
880.064453125,815.9102783203125,62.5000991821289,816.4075317382812,597.6571655273438
880.064453125,815.9102783203125,85.93763732910156,824.2200317382812,609.3759765625
880.064453125,815.9102783203125,93.7501449584961,875.0013427734375,605.4697265625
876.7745361328125,806.0403442382812,93.7501449584961,875.0013427734375,605.4697265625
880.064453125,814.2652587890625,93.7501449584961,875.0013427734375,605.4697265625
868.5496215820312,814.2652587890625,54.687583923339844,835.9387817382812,578.1259155273438
884.9994506835938,815.9102783203125,66.40635681152344,816.4075317382812,578.1259155273438
909.6741333007812,809.330322265625,89.84388732910156,847.6575927734375,582.0321655273438
911.319091796875,799.46044921875,89.84388732910156,847.6575927734375,582.0321655273438
843.8749389648438,778.07568359375,93.7501449584961,824.2200317382812,585.9384155273438
843.8749389648438,778.07568359375,85.93763732910156,824.2200317382812,582.0321655273438
842.2299194335938,781.3656616210938,85.93763732910156,824.2200317382812,582.0321655273438
810.9752807617188,771.4957885742188,85.93763732910156,824.2200317382812,582.0321655273438
768.205810546875,758.3359375,101.56266021728516,820.3137817382812,582.0321655273438
763.2708740234375,759.9808959960938,62.5000991821289,835.9387817382812,539.0633544921875
763.2708740234375,759.9808959960938,121.09394073486328,785.157470703125,578.1259155273438
781.3656616210938,799.46044921875,121.09394073486328,785.157470703125,578.1259155273438
781.3656616210938,809.330322265625,121.09394073486328,785.157470703125,578.1259155273438
783.0106201171875,832.3600463867188,109.37516784667969,847.6575927734375,578.1259155273438
812.6203002929688,845.5198974609375,128.90644836425778,847.6575927734375,605.4697265625
810.9752807617188,860.32470703125,128.90644836425778,847.6575927734375,605.4697265625
797.8154907226562,883.3544311523438,117.18768310546876,839.8450927734375,601.5634155273438
778.07568359375,848.8098754882812,117.18768310546876,828.1262817382812,605.4697265625
796.1704711914062,825.7801513671875,66.40635681152344,785.157470703125,605.4697265625
852.0997924804688,804.3953857421875,58.59384155273438,761.719970703125,640.6259765625
881.70947265625,886.6444091796875,-11.718768119812012,699.2198486328125,703.1260986328125
881.70947265625,886.6444091796875,-42.96881866455078,710.9385986328125,687.5010986328125
881.70947265625,886.6444091796875,-42.96881866455078,726.5636596679688,707.0323486328125
837.2949829101562,886.6444091796875,-46.87507247924805,738.2824096679688,722.6574096679688
812.6203002929688,866.9046630859375,-85.93763732910156,718.7510986328125,742.1886596679688
784.6556396484375,850.454833984375,-85.93763732910156,718.7510986328125,742.1886596679688
766.5608520507812,848.8098754882812,-85.93763732910156,718.7510986328125,742.1886596679688
755.0459594726562,751.7560424804688,-437.5006713867188,617.1884765625,714.8448486328125
769.850830078125,769.850830078125,-437.5006713867188,617.1884765625,714.8448486328125
756.6909790039062,774.7857666015625,-371.0943298339844,644.5322875976562,730.4699096679688
789.590576171875,764.9158325195312,-355.46929931640625,750.0011596679688,667.9697875976562
878.4194946289062,829.070068359375,-132.81271362304688,742.1886596679688,628.9072265625
886.6444091796875,842.2299194335938,-132.81271362304688,742.1886596679688,628.9072265625
888.2893676757812,847.1648559570312,-70.31260681152344,808.5950317382812,593.7509155273438
899.8042602539062,843.8749389648438,-35.15630340576172,816.4075317382812,570.3134155273438
904.7391967773438,843.8749389648438,3.9062561988830566,804.6887817382812,574.2196655273438
909.6741333007812,768.205810546875,3.9062561988830566,804.6887817382812,574.2196655273438
909.6741333007812,799.46044921875,39.06256103515625,828.1262817382812,574.2196655273438
903.09423828125,814.2652587890625,39.06256103515625,828.1262817382812,574.2196655273438
903.09423828125,817.5552368164062,39.06256103515625,828.1262817382812,574.2196655273438
894.8693237304688,819.2001953125,70.31260681152344,843.7513427734375,582.0321655273438
891.579345703125,807.6853637695312,89.84388732910156,835.9387817382812,609.3759765625
901.44921875,825.7801513671875,78.1251220703125,820.3137817382812,570.3134155273438
901.44921875,825.7801513671875,66.40635681152344,812.5012817382812,570.3134155273438
904.7391967773438,820.84521484375,66.40635681152344,812.5012817382812,570.3134155273438
916.2540283203124,817.5552368164062,66.40635681152344,839.8450927734375,578.1259155273438
916.2540283203124,817.5552368164062,78.1251220703125,832.0325317382812,589.8446655273438
916.2540283203124,815.9102783203125,78.1251220703125,832.0325317382812,589.8446655273438
914.6090698242188,814.2652587890625,66.40635681152344,835.9387817382812,589.8446655273438
883.3544311523438,827.4251098632812,66.40635681152344,835.9387817382812,589.8446655273438
876.7745361328125,832.3600463867188,58.59384155273438,828.1262817382812,597.6571655273438
871.839599609375,824.1351318359375,58.59384155273438,824.2200317382812,585.9384155273438
860.32470703125,837.2949829101562,46.87507247924805,828.1262817382812,574.2196655273438
860.32470703125,837.2949829101562,46.87507247924805,820.3137817382812,574.2196655273438
857.0347290039062,840.5849609375,46.87507247924805,820.3137817382812,574.2196655273438
845.5198974609375,860.32470703125,78.1251220703125,835.9387817382812,566.4071655273438
845.5198974609375,860.32470703125,62.5000991821289,839.8450927734375,582.0321655273438
842.2299194335938,868.5496215820312,62.5000991821289,839.8450927734375,582.0321655273438
840.5849609375,875.1295166015625,62.5000991821289,835.9387817382812,605.4697265625
840.5849609375,875.1295166015625,31.25004959106445,863.2825927734375,597.6571655273438
842.2299194335938,881.70947265625,31.25004959106445,863.2825927734375,597.6571655273438
857.0347290039062,840.5849609375,27.343791961669922,843.7513427734375,597.6571655273438
857.0347290039062,840.5849609375,39.06256103515625,835.9387817382812,597.6571655273438
871.839599609375,847.1648559570312,46.87507247924805,820.3137817382812,589.8446655273438
876.7745361328125,850.454833984375,46.87507247924805,820.3137817382812,589.8446655273438
876.7745361328125,842.2299194335938,11.718768119812012,835.9387817382812,593.7509155273438
875.1295166015625,838.9400024414062,11.718768119812012,835.9387817382812,593.7509155273438
875.1295166015625,843.8749389648438,11.718768119812012,835.9387817382812,593.7509155273438
857.0347290039062,825.7801513671875,19.531280517578125,839.8450927734375,609.3759765625
878.4194946289062,814.2652587890625,19.531280517578125,839.8450927734375,609.3759765625
888.2893676757812,832.3600463867188,15.625024795532227,804.6887817382812,605.4697265625
880.064453125,835.6500244140625,-15.625024795532227,808.5950317382812,609.3759765625
878.4194946289062,827.4251098632812,-23.437536239624023,812.5012817382812,613.2822265625
878.4194946289062,838.9400024414062,-42.96881866455078,812.5012817382812,613.2822265625
876.7745361328125,827.4251098632812,-50.78133010864258,820.3137817382812,628.9072265625
857.0347290039062,830.715087890625,-50.78133010864258,820.3137817382812,625.0009765625
871.839599609375,881.70947265625,-70.31260681152344,820.3137817382812,625.0009765625
876.7745361328125,901.44921875,-78.1251220703125,812.5012817382812,613.2822265625
868.5496215820312,893.2243041992188,-105.46891784667969,804.6887817382812,617.1884765625
863.6146850585938,883.3544311523438,-105.46891784667969,804.6887817382812,617.1884765625
863.6146850585938,878.4194946289062,-109.37516784667969,796.876220703125,621.0947265625
863.6146850585938,878.4194946289062,-113.28142547607422,796.876220703125,628.9072265625
865.2596435546875,883.3544311523438,-117.18768310546876,808.5950317382812,640.6259765625
861.9697265625,845.5198974609375,-140.62521362304688,789.063720703125,636.7197265625
852.0997924804688,842.2299194335938,-140.62521362304688,789.063720703125,636.7197265625
847.1648559570312,847.1648559570312,-136.71896362304688,789.063720703125,644.5322875976562
838.9400024414062,838.9400024414062,-156.250244140625,804.6887817382812,644.5322875976562
825.7801513671875,812.6203002929688,-164.06275939941406,781.251220703125,640.6259765625
817.5552368164062,794.5255126953125,-187.5002899169922,765.626220703125,652.3447875976562
817.5552368164062,791.2355346679688,-199.21905517578125,789.063720703125,656.2510375976562
825.7801513671875,817.5552368164062,-199.21905517578125,789.063720703125,656.2510375976562
801.1054077148438,838.9400024414062,-273.4379272460937,679.6885375976562,664.0635375976562
799.46044921875,827.4251098632812,-281.2504272460937,773.438720703125,695.3135986328125
799.46044921875,827.4251098632812,-285.1567077636719,761.719970703125,703.1260986328125
810.9752807617188,842.2299194335938,-285.1567077636719,761.719970703125,703.1260986328125
797.8154907226562,838.9400024414062,-304.68798828125,792.969970703125,707.0323486328125
797.8154907226562,830.715087890625,-308.59423828125,777.344970703125,703.1260986328125
763.2708740234375,725.4363403320312,-308.59423828125,777.344970703125,703.1260986328125
763.2708740234375,725.4363403320312,-296.8754577636719,734.3761596679688,671.8760375976562
763.2708740234375,725.4363403320312,-320.31298828125,730.4699096679688,652.3447875976562
736.951171875,786.3005981445312,-320.31298828125,730.4699096679688,652.3447875976562
810.9752807617188,863.6146850585938,-273.4379272460937,714.8448486328125,667.9697875976562
810.9752807617188,863.6146850585938,-304.68798828125,750.0011596679688,648.4385375976562
832.3600463867188,850.454833984375,-265.6254272460937,773.438720703125,648.4385375976562
829.070068359375,855.3897705078125,-277.3441772460937,753.9074096679688,636.7197265625
819.2001953125,852.0997924804688,-277.3441772460937,753.9074096679688,636.7197265625
825.7801513671875,858.6797485351562,-238.2816162109375,726.5636596679688,648.4385375976562
829.070068359375,873.4845581054688,-238.2816162109375,726.5636596679688,648.4385375976562
842.2299194335938,861.9697265625,-261.71914672851557,730.4699096679688,644.5322875976562
834.0050048828125,838.9400024414062,-246.09413146972656,738.2824096679688,652.3447875976562
834.0050048828125,838.9400024414062,-265.6254272460937,757.8136596679688,636.7197265625
834.0050048828125,842.2299194335938,-265.6254272460937,757.8136596679688,636.7197265625
829.070068359375,830.715087890625,-265.6254272460937,757.8136596679688,636.7197265625
817.5552368164062,840.5849609375,-265.6254272460937,757.8136596679688,632.8134765625
814.2652587890625,832.3600463867188,-265.6254272460937,757.8136596679688,632.8134765625
815.9102783203125,829.070068359375,-265.6254272460937,757.8136596679688,632.8134765625
815.9102783203125,829.070068359375,-246.09413146972656,750.0011596679688,636.7197265625
817.5552368164062,834.0050048828125,-265.6254272460937,789.063720703125,636.7197265625
820.84521484375,829.070068359375,-238.2816162109375,777.344970703125,644.5322875976562
820.84521484375,829.070068359375,-234.3753662109375,769.532470703125,632.8134765625
789.590576171875,840.5849609375,-238.2816162109375,785.157470703125,632.8134765625
783.0106201171875,837.2949829101562,-238.2816162109375,785.157470703125,632.8134765625
787.945556640625,817.5552368164062,-238.2816162109375,785.157470703125,632.8134765625
787.945556640625,814.2652587890625,-246.09413146972656,777.344970703125,625.0009765625
784.6556396484375,825.7801513671875,-253.9066467285156,773.438720703125,617.1884765625
759.9808959960938,792.8805541992188,-253.9066467285156,773.438720703125,617.1884765625
794.5255126953125,825.7801513671875,-265.6254272460937,804.6887817382812,621.0947265625
794.5255126953125,830.715087890625,-261.71914672851557,800.7825317382812,621.0947265625
794.5255126953125,830.715087890625,-250.0003967285156,800.7825317382812,621.0947265625
794.5255126953125,830.715087890625,-253.9066467285156,800.7825317382812,613.2822265625
781.3656616210938,814.2652587890625,-257.81289672851557,804.6887817382812,593.7509155273438
799.46044921875,822.4901733398438,-250.0003967285156,800.7825317382812,597.6571655273438
814.2652587890625,845.5198974609375,-261.71914672851557,820.3137817382812,585.9384155273438
815.9102783203125,832.3600463867188,-261.71914672851557,820.3137817382812,585.9384155273438
815.9102783203125,832.3600463867188,-257.81289672851557,800.7825317382812,574.2196655273438
824.1351318359375,855.3897705078125,-257.81289672851557,812.5012817382812,570.3134155273438
824.1351318359375,845.5198974609375,-265.6254272460937,816.4075317382812,566.4071655273438
824.1351318359375,845.5198974609375,-265.6254272460937,804.6887817382812,570.3134155273438
829.070068359375,834.0050048828125,-265.6254272460937,804.6887817382812,570.3134155273438
832.3600463867188,838.9400024414062,-250.0003967285156,808.5950317382812,562.5008544921875
837.2949829101562,845.5198974609375,-273.4379272460937,804.6887817382812,546.8758544921875
817.5552368164062,842.2299194335938,-238.2816162109375,765.626220703125,574.2196655273438
817.5552368164062,842.2299194335938,-265.6254272460937,785.157470703125,558.5946044921875
812.6203002929688,835.6500244140625,-273.4379272460937,824.2200317382812,558.5946044921875
814.2652587890625,838.9400024414062,-273.4379272460937,824.2200317382812,558.5946044921875
814.2652587890625,838.9400024414062,-246.09413146972656,808.5950317382812,574.2196655273438
829.070068359375,827.4251098632812,-246.09413146972656,792.969970703125,578.1259155273438
820.84521484375,807.6853637695312,-246.09413146972656,792.969970703125,578.1259155273438
817.5552368164062,806.0403442382812,-230.4691162109375,808.5950317382812,609.3759765625
807.6853637695312,817.5552368164062,-230.4691162109375,808.5950317382812,609.3759765625
822.4901733398438,830.715087890625,-261.71914672851557,812.5012817382812,601.5634155273438
807.6853637695312,807.6853637695312,-253.9066467285156,785.157470703125,609.3759765625
815.9102783203125,830.715087890625,-230.4691162109375,804.6887817382812,601.5634155273438
817.5552368164062,845.5198974609375,-230.4691162109375,804.6887817382812,601.5634155273438
799.46044921875,817.5552368164062,-230.4691162109375,804.6887817382812,601.5634155273438
812.6203002929688,865.2596435546875,-226.56285095214844,781.251220703125,597.6571655273438
810.9752807617188,917.8990478515624,-226.56285095214844,796.876220703125,605.4697265625
838.9400024414062,940.9287719726562,-226.56285095214844,796.876220703125,605.4697265625
842.2299194335938,940.9287719726562,-222.65660095214844,804.6887817382812,617.1884765625
835.6500244140625,931.0588989257812,-222.65660095214844,804.6887817382812,617.1884765625
842.2299194335938,929.4138793945312,-191.40655517578125,804.6887817382812,625.0009765625
853.7448120117188,894.8693237304688,-195.31280517578125,792.969970703125,613.2822265625
853.7448120117188,894.8693237304688,-214.84408569335938,800.7825317382812,609.3759765625
853.7448120117188,894.8693237304688,-199.21905517578125,781.251220703125,625.0009765625
840.5849609375,878.4194946289062,-199.21905517578125,781.251220703125,625.0009765625
855.3897705078125,842.2299194335938,-210.93783569335938,800.7825317382812,640.6259765625
868.5496215820312,786.3005981445312,-218.75033569335938,796.876220703125,632.8134765625
792.8805541992188,807.6853637695312,-203.1253204345703,722.6574096679688,621.0947265625
792.8805541992188,965.6034545898438,-203.1253204345703,722.6574096679688,621.0947265625
927.7689208984376,820.84521484375,-70.31260681152344,875.0013427734375,605.4697265625
927.7689208984376,820.84521484375,-82.03137969970703,886.7201538085938,597.6571655273438
937.6387939453124,842.2299194335938,-82.03137969970703,886.7201538085938,597.6571655273438
863.6146850585938,807.6853637695312,-113.28142547607422,871.0950927734375,570.3134155273438
860.32470703125,814.2652587890625,-117.18768310546876,871.0950927734375,562.5008544921875
842.2299194335938,797.8154907226562,-101.56266021728516,878.9076538085938,562.5008544921875
842.2299194335938,797.8154907226562,-121.09394073486328,902.3451538085938,539.0633544921875
824.1351318359375,794.5255126953125,-136.71896362304688,910.1576538085938,531.2508544921875
812.6203002929688,781.3656616210938,-132.81271362304688,890.6264038085938,515.6257934570311
812.6203002929688,781.3656616210938,-144.53147888183594,910.1576538085938,500.00079345703125
819.2001953125,796.1704711914062,-179.68777465820312,910.1576538085938,421.8756713867188
832.3600463867188,815.9102783203125,-171.87527465820312,917.97021484375,371.0943298339844
832.3600463867188,822.4901733398438,-171.87527465820312,917.97021484375,371.0943298339844
827.4251098632812,827.4251098632812,-195.31280517578125,976.5640258789062,324.2192687988281
832.3600463867188,838.9400024414062,-195.31280517578125,976.5640258789062,324.2192687988281
822.4901733398438,819.2001953125,-195.31280517578125,949.22021484375,269.5316772460937
822.4901733398438,819.2001953125,-218.75033569335938,933.59521484375,242.18788146972656
822.4901733398438,837.2949829101562,-218.75033569335938,933.59521484375,242.18788146972656
822.4901733398438,837.2949829101562,-218.75033569335938,917.97021484375,218.75033569335938
824.1351318359375,838.9400024414062,-171.87527465820312,960.9390258789062,171.87527465820312
832.3600463867188,837.2949829101562,-152.343994140625,949.22021484375,125.0001983642578
832.3600463867188,842.2299194335938,-167.96900939941406,960.9390258789062,132.81271362304688
827.4251098632812,832.3600463867188,-167.96900939941406,960.9390258789062,132.81271362304688
819.2001953125,848.8098754882812,-167.96900939941406,960.9390258789062,132.81271362304688
824.1351318359375,840.5849609375,-167.96900939941406,1000.0015869140624,164.06275939941406
824.1351318359375,840.5849609375,-175.78152465820312,992.1890258789062,171.87527465820312
822.4901733398438,843.8749389648438,-175.78152465820312,992.1890258789062,171.87527465820312
810.9752807617188,827.4251098632812,-175.78152465820312,992.1890258789062,171.87527465820312
819.2001953125,824.1351318359375,-199.21905517578125,957.0327758789062,167.96900939941406
806.0403442382812,838.9400024414062,-199.21905517578125,957.0327758789062,167.96900939941406
810.9752807617188,852.0997924804688,-195.31280517578125,976.5640258789062,183.5940399169922
807.6853637695312,843.8749389648438,-250.0003967285156,968.7515258789062,273.4379272460937
797.8154907226562,847.1648559570312,-250.0003967285156,968.7515258789062,273.4379272460937
802.7504272460938,853.7448120117188,-230.4691162109375,929.68896484375,289.0629577636719
792.8805541992188,847.1648559570312,-214.84408569335938,917.97021484375,316.40673828125
801.1054077148438,825.7801513671875,-253.9066467285156,953.12646484375,359.37554931640625
824.1351318359375,768.205810546875,-273.4379272460937,949.22021484375,367.1880798339844
824.1351318359375,784.6556396484375,-261.71914672851557,941.40771484375,378.9068298339844
824.1351318359375,789.590576171875,-261.71914672851557,941.40771484375,378.9068298339844
832.3600463867188,797.8154907226562,-234.3753662109375,925.78271484375,343.75054931640625
827.4251098632812,807.6853637695312,-253.9066467285156,996.0953369140624,371.0943298339844
834.0050048828125,810.9752807617188,-253.9066467285156,996.0953369140624,371.0943298339844
824.1351318359375,809.330322265625,-253.9066467285156,996.0953369140624,371.0943298339844
830.715087890625,814.2652587890625,-210.93783569335938,964.8452758789062,375.0005798339844
848.8098754882812,825.7801513671875,-210.93783569335938,964.8452758789062,375.0005798339844
835.6500244140625,810.9752807617188,-281.2504272460937,925.78271484375,343.75054931640625
819.2001953125,810.9752807617188,-281.2504272460937,925.78271484375,343.75054931640625
799.46044921875,781.3656616210938,-292.9692077636719,882.8139038085938,312.50048828125
799.46044921875,781.3656616210938,-285.1567077636719,910.1576538085938,300.7817077636719
799.46044921875,781.3656616210938,-292.9692077636719,941.40771484375,296.8754577636719
799.46044921875,786.3005981445312,-292.9692077636719,941.40771484375,296.8754577636719
812.6203002929688,807.6853637695312,-332.0317687988281,898.4389038085938,351.56304931640625
797.8154907226562,824.1351318359375,-332.0317687988281,898.4389038085938,351.56304931640625
819.2001953125,814.2652587890625,-257.81289672851557,980.4702758789062,421.8756713867188
819.2001953125,814.2652587890625,-296.8754577636719,941.40771484375,406.2506408691406
814.2652587890625,787.945556640625,-296.8754577636719,941.40771484375,406.2506408691406
822.4901733398438,810.9752807617188,-308.59423828125,925.78271484375,410.1568908691406
822.4901733398438,810.9752807617188,-320.31298828125,871.0950927734375,402.3443908691406
838.9400024414062,840.5849609375,-328.1255187988281,894.5326538085938,386.7193603515625
834.0050048828125,827.4251098632812,-328.1255187988281,875.0013427734375,414.0631408691406
834.0050048828125,827.4251098632812,-324.2192687988281,878.9076538085938,425.7819213867188
832.3600463867188,861.9697265625,-324.2192687988281,878.9076538085938,425.7819213867188
822.4901733398438,873.4845581054688,-359.37554931640625,851.5638427734375,417.9693908691406
809.330322265625,840.5849609375,-375.0005798339844,851.5638427734375,429.6881713867188
809.330322265625,840.5849609375,-382.8131103515625,851.5638427734375,433.5944213867188
796.1704711914062,824.1351318359375,-402.3443908691406,843.7513427734375,441.4069519042969
802.7504272460938,845.5198974609375,-402.3443908691406,843.7513427734375,441.4069519042969
812.6203002929688,830.715087890625,-425.7819213867188,851.5638427734375,433.5944213867188
792.8805541992188,830.715087890625,-425.7819213867188,851.5638427734375,433.5944213867188
804.3953857421875,850.454833984375,-437.5006713867188,835.9387817382812,457.0319519042969
809.330322265625,827.4251098632812,-445.3132019042969,835.9387817382812,457.0319519042969
822.4901733398438,832.3600463867188,-445.3132019042969,843.7513427734375,457.0319519042969
819.2001953125,832.3600463867188,-453.1257019042969,820.3137817382812,437.5006713867188
810.9752807617188,835.6500244140625,-445.3132019042969,792.969970703125,441.4069519042969
806.0403442382812,842.2299194335938,-445.3132019042969,792.969970703125,441.4069519042969
812.6203002929688,853.7448120117188,-417.9693908691406,781.251220703125,460.938232421875
807.6853637695312,822.4901733398438,-417.9693908691406,781.251220703125,460.938232421875
815.9102783203125,815.9102783203125,-421.8756713867188,808.5950317382812,464.844482421875
815.9102783203125,815.9102783203125,-410.1568908691406,800.7825317382812,464.844482421875
810.9752807617188,815.9102783203125,-410.1568908691406,800.7825317382812,464.844482421875
838.9400024414062,824.1351318359375,-367.1880798339844,796.876220703125,472.656982421875
814.2652587890625,834.0050048828125,-339.8442687988281,832.0325317382812,488.2820129394531
796.1704711914062,824.1351318359375,-339.8442687988281,832.0325317382812,488.2820129394531
801.1054077148438,834.0050048828125,-332.0317687988281,906.2514038085938,500.00079345703125
796.1704711914062,840.5849609375,-332.0317687988281,906.2514038085938,500.00079345703125
781.3656616210938,830.715087890625,-285.1567077636719,843.7513427734375,511.71954345703125
781.3656616210938,830.715087890625,-289.0629577636719,835.9387817382812,519.5320434570311
802.7504272460938,857.0347290039062,-289.0629577636719,835.9387817382812,519.5320434570311
787.945556640625,822.4901733398438,-222.65660095214844,839.8450927734375,542.9696044921875
809.330322265625,812.6203002929688,-253.9066467285156,851.5638427734375,527.3446044921875
791.2355346679688,791.2355346679688,-226.56285095214844,835.9387817382812,542.9696044921875
774.7857666015625,764.9158325195312,-238.2816162109375,871.0950927734375,519.5320434570311
779.720703125,761.6259155273438,-238.2816162109375,871.0950927734375,519.5320434570311
779.720703125,761.6259155273438,-191.40655517578125,832.0325317382812,546.8758544921875
779.720703125,761.6259155273438,-195.31280517578125,835.9387817382812,539.0633544921875
773.1407470703125,753.4010009765625,-195.31280517578125,839.8450927734375,535.1571044921875
773.1407470703125,753.4010009765625,-175.78152465820312,832.0325317382812,535.1571044921875
768.205810546875,753.4010009765625,-187.5002899169922,878.9076538085938,535.1571044921875
776.4307250976562,756.6909790039062,-187.5002899169922,878.9076538085938,535.1571044921875
824.1351318359375,801.1054077148438,-105.46891784667969,882.8139038085938,566.4071655273438
817.5552368164062,799.46044921875,-105.46891784667969,882.8139038085938,566.4071655273438
817.5552368164062,799.46044921875,-121.09394073486328,917.97021484375,566.4071655273438
804.3953857421875,773.1407470703125,-121.09394073486328,917.97021484375,566.4071655273438
776.4307250976562,738.59619140625,-121.09394073486328,917.97021484375,566.4071655273438
773.1407470703125,727.081298828125,-152.343994140625,890.6264038085938,531.2508544921875
773.1407470703125,727.081298828125,-148.43772888183594,847.6575927734375,531.2508544921875
766.5608520507812,733.6612548828125,-148.43772888183594,847.6575927734375,531.2508544921875
771.4957885742188,745.1760864257812,-140.62521362304688,914.0639038085938,539.0633544921875
774.7857666015625,750.1110229492188,-136.71896362304688,910.1576538085938,539.0633544921875
781.3656616210938,745.1760864257812,-136.71896362304688,910.1576538085938,539.0633544921875
796.1704711914062,794.5255126953125,-167.96900939941406,820.3137817382812,511.71954345703125
794.5255126953125,787.945556640625,-167.96900939941406,820.3137817382812,511.71954345703125
809.330322265625,796.1704711914062,-136.71896362304688,832.0325317382812,566.4071655273438
820.84521484375,825.7801513671875,-140.62521362304688,894.5326538085938,566.4071655273438
830.715087890625,817.5552368164062,-117.18768310546876,824.2200317382812,578.1259155273438
824.1351318359375,825.7801513671875,-140.62521362304688,863.2825927734375,562.5008544921875
842.2299194335938,830.715087890625,-136.71896362304688,871.0950927734375,546.8758544921875
843.8749389648438,829.070068359375,-136.71896362304688,816.4075317382812,542.9696044921875
853.7448120117188,850.454833984375,-148.43772888183594,828.1262817382812,550.7821044921875
863.6146850585938,847.1648559570312,-148.43772888183594,828.1262817382812,550.7821044921875
863.6146850585938,847.1648559570312,-132.81271362304688,828.1262817382812,582.0321655273438
868.5496215820312,858.6797485351562,-132.81271362304688,828.1262817382812,582.0321655273438
868.5496215820312,845.5198974609375,-148.43772888183594,808.5950317382812,585.9384155273438
868.5496215820312,850.454833984375,-125.0001983642578,789.063720703125,605.4697265625
868.5496215820312,850.454833984375,-148.43772888183594,824.2200317382812,601.5634155273438
865.2596435546875,838.9400024414062,-148.43772888183594,824.2200317382812,601.5634155273438
860.32470703125,837.2949829101562,-199.21905517578125,824.2200317382812,597.6571655273438
871.839599609375,850.454833984375,-207.0315704345703,820.3137817382812,582.0321655273438
873.4845581054688,830.715087890625,-164.06275939941406,753.9074096679688,554.6883544921875
871.839599609375,820.84521484375,-175.78152465820312,769.532470703125,546.8758544921875
871.839599609375,824.1351318359375,-175.78152465820312,769.532470703125,546.8758544921875
875.1295166015625,832.3600463867188,-195.31280517578125,820.3137817382812,566.4071655273438
875.1295166015625,817.5552368164062,-187.5002899169922,867.1888427734375,578.1259155273438
878.4194946289062,829.070068359375,-160.156494140625,882.8139038085938,613.2822265625
871.839599609375,824.1351318359375,-160.156494140625,882.8139038085938,613.2822265625
873.4845581054688,820.84521484375,-203.1253204345703,851.5638427734375,632.8134765625
873.4845581054688,820.84521484375,-207.0315704345703,847.6575927734375,636.7197265625
868.5496215820312,810.9752807617188,-187.5002899169922,867.1888427734375,636.7197265625
876.7745361328125,797.8154907226562,-171.87527465820312,792.969970703125,625.0009765625
898.1592407226562,812.6203002929688,-152.343994140625,835.9387817382812,628.9072265625
914.6090698242188,827.4251098632812,-82.03137969970703,816.4075317382812,636.7197265625
916.2540283203124,855.3897705078125,-85.93763732910156,804.6887817382812,621.0947265625
917.8990478515624,847.1648559570312,-85.93763732910156,804.6887817382812,621.0947265625
921.18896484375,880.064453125,-171.87527465820312,820.3137817382812,542.9696044921875
922.833984375,868.5496215820312,-171.87527465820312,820.3137817382812,542.9696044921875
917.8990478515624,875.1295166015625,-171.87527465820312,820.3137817382812,542.9696044921875
901.44921875,855.3897705078125,-195.31280517578125,894.5326538085938,531.2508544921875
909.6741333007812,881.70947265625,-164.06275939941406,851.5638427734375,542.9696044921875
891.579345703125,850.454833984375,-132.81271362304688,847.6575927734375,558.5946044921875
891.579345703125,850.454833984375,-105.46891784667969,847.6575927734375,574.2196655273438
883.3544311523438,852.0997924804688,-105.46891784667969,847.6575927734375,574.2196655273438
857.0347290039062,850.454833984375,-62.5000991821289,863.2825927734375,589.8446655273438
843.8749389648438,845.5198974609375,-101.56266021728516,859.3763427734375,531.2508544921875
847.1648559570312,822.4901733398438,-78.1251220703125,812.5012817382812,558.5946044921875
807.6853637695312,822.4901733398438,-89.84388732910156,835.9387817382812,554.6883544921875
799.46044921875,810.9752807617188,-82.03137969970703,835.9387817382812,578.1259155273438
812.6203002929688,815.9102783203125,-78.1251220703125,835.9387817382812,593.7509155273438
806.0403442382812,815.9102783203125,-50.78133010864258,824.2200317382812,597.6571655273438
815.9102783203125,817.5552368164062,-62.5000991821289,796.876220703125,582.0321655273438
814.2652587890625,825.7801513671875,-62.5000991821289,796.876220703125,582.0321655273438
827.4251098632812,814.2652587890625,-70.31260681152344,722.6574096679688,597.6571655273438
797.8154907226562,781.3656616210938,-93.7501449584961,871.0950927734375,636.7197265625
801.1054077148438,792.8805541992188,-113.28142547607422,863.2825927734375,640.6259765625
801.1054077148438,792.8805541992188,-97.65640258789062,847.6575927734375,644.5322875976562
820.84521484375,806.0403442382812,-113.28142547607422,812.5012817382812,628.9072265625
820.84521484375,806.0403442382812,-93.7501449584961,789.063720703125,636.7197265625
835.6500244140625,784.6556396484375,-93.7501449584961,789.063720703125,636.7197265625
835.6500244140625,814.2652587890625,-89.84388732910156,804.6887817382812,644.5322875976562
835.6500244140625,814.2652587890625,-101.56266021728516,800.7825317382812,640.6259765625
842.2299194335938,807.6853637695312,-101.56266021728516,800.7825317382812,640.6259765625
840.5849609375,784.6556396484375,-101.56266021728516,785.157470703125,644.5322875976562
840.5849609375,784.6556396484375,-105.46891784667969,781.251220703125,644.5322875976562
838.9400024414062,781.3656616210938,-105.46891784667969,796.876220703125,636.7197265625
824.1351318359375,812.6203002929688,-97.65640258789062,792.969970703125,628.9072265625
824.1351318359375,812.6203002929688,-85.93763732910156,796.876220703125,640.6259765625
852.0997924804688,817.5552368164062,-85.93763732910156,796.876220703125,640.6259765625
860.32470703125,837.2949829101562,-85.93763732910156,796.876220703125,640.6259765625
848.8098754882812,834.0050048828125,-93.7501449584961,804.6887817382812,644.5322875976562
855.3897705078125,825.7801513671875,-93.7501449584961,804.6887817382812,644.5322875976562
858.6797485351562,830.715087890625,-85.93763732910156,812.5012817382812,652.3447875976562
835.6500244140625,848.8098754882812,-105.46891784667969,789.063720703125,648.4385375976562
835.6500244140625,848.8098754882812,-109.37516784667969,765.626220703125,648.4385375976562
838.9400024414062,837.2949829101562,-109.37516784667969,765.626220703125,648.4385375976562
842.2299194335938,843.8749389648438,-109.37516784667969,765.626220703125,648.4385375976562
837.2949829101562,824.1351318359375,-78.1251220703125,785.157470703125,648.4385375976562
847.1648559570312,797.8154907226562,-78.1251220703125,785.157470703125,648.4385375976562
845.5198974609375,822.4901733398438,-74.21886444091797,769.532470703125,636.7197265625
847.1648559570312,835.6500244140625,-70.31260681152344,789.063720703125,644.5322875976562
847.1648559570312,835.6500244140625,-62.5000991821289,804.6887817382812,640.6259765625
835.6500244140625,820.84521484375,-58.59384155273438,804.6887817382812,628.9072265625
835.6500244140625,820.84521484375,-50.78133010864258,796.876220703125,632.8134765625
840.5849609375,822.4901733398438,-50.78133010864258,796.876220703125,632.8134765625
840.5849609375,819.2001953125,-50.78133010864258,796.876220703125,632.8134765625
834.0050048828125,817.5552368164062,-54.687583923339844,820.3137817382812,632.8134765625
830.715087890625,810.9752807617188,-54.687583923339844,820.3137817382812,632.8134765625
830.715087890625,814.2652587890625,-54.687583923339844,820.3137817382812,632.8134765625
834.0050048828125,807.6853637695312,-31.25004959106445,804.6887817382812,632.8134765625
834.0050048828125,807.6853637695312,-19.531280517578125,789.063720703125,648.4385375976562
819.2001953125,819.2001953125,-19.531280517578125,789.063720703125,648.4385375976562
814.2652587890625,820.84521484375,-46.87507247924805,820.3137817382812,644.5322875976562
817.5552368164062,814.2652587890625,-31.25004959106445,804.6887817382812,648.4385375976562
810.9752807617188,814.2652587890625,-31.25004959106445,804.6887817382812,648.4385375976562
814.2652587890625,817.5552368164062,-50.78133010864258,773.438720703125,640.6259765625
807.6853637695312,814.2652587890625,-46.87507247924805,804.6887817382812,632.8134765625
814.2652587890625,824.1351318359375,-54.687583923339844,812.5012817382812,625.0009765625
814.2652587890625,824.1351318359375,-54.687583923339844,816.4075317382812,621.0947265625
814.2652587890625,819.2001953125,-54.687583923339844,816.4075317382812,621.0947265625
810.9752807617188,820.84521484375,-54.687583923339844,816.4075317382812,621.0947265625
810.9752807617188,817.5552368164062,-11.718768119812012,812.5012817382812,625.0009765625
822.4901733398438,834.0050048828125,-11.718768119812012,812.5012817382812,625.0009765625
812.6203002929688,842.2299194335938,-11.718768119812012,812.5012817382812,625.0009765625
819.2001953125,837.2949829101562,-27.343791961669922,785.157470703125,625.0009765625
815.9102783203125,830.715087890625,-27.343791961669922,785.157470703125,625.0009765625
815.9102783203125,838.9400024414062,-19.531280517578125,824.2200317382812,617.1884765625
827.4251098632812,815.9102783203125,-19.531280517578125,824.2200317382812,617.1884765625
827.4251098632812,815.9102783203125,-27.343791961669922,851.5638427734375,609.3759765625
827.4251098632812,815.9102783203125,-7.812512397766112,820.3137817382812,613.2822265625
829.070068359375,832.3600463867188,-7.812512397766112,820.3137817382812,613.2822265625
810.9752807617188,832.3600463867188,-11.718768119812012,878.9076538085938,628.9072265625
806.0403442382812,848.8098754882812,-7.812512397766112,882.8139038085938,621.0947265625
807.6853637695312,843.8749389648438,27.343791961669922,859.3763427734375,625.0009765625
807.6853637695312,843.8749389648438,15.625024795532227,792.969970703125,609.3759765625
819.2001953125,806.0403442382812,15.625024795532227,792.969970703125,609.3759765625
809.330322265625,801.1054077148438,15.625024795532227,792.969970703125,609.3759765625
802.7504272460938,796.1704711914062,39.06256103515625,750.0011596679688,585.9384155273438
848.8098754882812,801.1054077148438,50.78133010864258,769.532470703125,589.8446655273438
848.8098754882812,801.1054077148438,70.31260681152344,804.6887817382812,574.2196655273438
840.5849609375,792.8805541992188,70.31260681152344,804.6887817382812,574.2196655273438
832.3600463867188,789.590576171875,70.31260681152344,804.6887817382812,574.2196655273438
861.9697265625,822.4901733398438,42.96881866455078,839.8450927734375,554.6883544921875
835.6500244140625,827.4251098632812,42.96881866455078,839.8450927734375,554.6883544921875
827.4251098632812,817.5552368164062,62.5000991821289,871.0950927734375,566.4071655273438
848.8098754882812,845.5198974609375,58.59384155273438,832.0325317382812,570.3134155273438
848.8098754882812,850.454833984375,58.59384155273438,832.0325317382812,570.3134155273438
848.8098754882812,850.454833984375,31.25004959106445,820.3137817382812,566.4071655273438
855.3897705078125,842.2299194335938,62.5000991821289,863.2825927734375,593.7509155273438
855.3897705078125,842.2299194335938,70.31260681152344,820.3137817382812,593.7509155273438
848.8098754882812,852.0997924804688,70.31260681152344,820.3137817382812,593.7509155273438
817.5552368164062,825.7801513671875,70.31260681152344,820.3137817382812,593.7509155273438
814.2652587890625,820.84521484375,27.343791961669922,859.3763427734375,558.5946044921875
815.9102783203125,799.46044921875,39.06256103515625,839.8450927734375,562.5008544921875
815.9102783203125,778.07568359375,58.59384155273438,839.8450927734375,570.3134155273438
843.8749389648438,804.3953857421875,54.687583923339844,851.5638427734375,574.2196655273438
843.8749389648438,804.3953857421875,62.5000991821289,843.7513427734375,578.1259155273438
838.9400024414062,804.3953857421875,62.5000991821289,843.7513427734375,578.1259155273438
838.9400024414062,789.590576171875,54.687583923339844,851.5638427734375,570.3134155273438
848.8098754882812,807.6853637695312,58.59384155273438,832.0325317382812,570.3134155273438
838.9400024414062,799.46044921875,58.59384155273438,832.0325317382812,570.3134155273438
838.9400024414062,799.46044921875,66.40635681152344,820.3137817382812,570.3134155273438
838.9400024414062,824.1351318359375,66.40635681152344,820.3137817382812,570.3134155273438
840.5849609375,822.4901733398438,58.59384155273438,843.7513427734375,578.1259155273438
850.454833984375,824.1351318359375,62.5000991821289,863.2825927734375,578.1259155273438
858.6797485351562,837.2949829101562,62.5000991821289,878.9076538085938,574.2196655273438
842.2299194335938,835.6500244140625,66.40635681152344,812.5012817382812,566.4071655273438
842.2299194335938,837.2949829101562,66.40635681152344,812.5012817382812,566.4071655273438
848.8098754882812,832.3600463867188,66.40635681152344,812.5012817382812,566.4071655273438
848.8098754882812,832.3600463867188,62.5000991821289,832.0325317382812,574.2196655273438
842.2299194335938,834.0050048828125,62.5000991821289,832.0325317382812,574.2196655273438
835.6500244140625,837.2949829101562,58.59384155273438,847.6575927734375,578.1259155273438
835.6500244140625,837.2949829101562,62.5000991821289,839.8450927734375,578.1259155273438
832.3600463867188,832.3600463867188,62.5000991821289,832.0325317382812,578.1259155273438
837.2949829101562,835.6500244140625,62.5000991821289,832.0325317382812,578.1259155273438
830.715087890625,832.3600463867188,50.78133010864258,835.9387817382812,566.4071655273438
834.0050048828125,847.1648559570312,50.78133010864258,835.9387817382812,566.4071655273438
840.5849609375,834.0050048828125,58.59384155273438,847.6575927734375,574.2196655273438
840.5849609375,834.0050048828125,54.687583923339844,832.0325317382812,570.3134155273438
835.6500244140625,822.4901733398438,54.687583923339844,832.0325317382812,570.3134155273438
837.2949829101562,819.2001953125,58.59384155273438,835.9387817382812,578.1259155273438
843.8749389648438,835.6500244140625,54.687583923339844,843.7513427734375,578.1259155273438
857.0347290039062,838.9400024414062,50.78133010864258,851.5638427734375,578.1259155273438
863.6146850585938,837.2949829101562,50.78133010864258,835.9387817382812,578.1259155273438
857.0347290039062,834.0050048828125,50.78133010864258,835.9387817382812,578.1259155273438
868.5496215820312,845.5198974609375,58.59384155273438,843.7513427734375,578.1259155273438
868.5496215820312,837.2949829101562,66.40635681152344,843.7513427734375,574.2196655273438
870.194580078125,843.8749389648438,58.59384155273438,847.6575927734375,570.3134155273438
871.839599609375,845.5198974609375,54.687583923339844,835.9387817382812,574.2196655273438
863.6146850585938,840.5849609375,54.687583923339844,843.7513427734375,578.1259155273438
861.9697265625,847.1648559570312,54.687583923339844,843.7513427734375,578.1259155273438
889.9343872070312,865.2596435546875,66.40635681152344,843.7513427734375,578.1259155273438
880.064453125,850.454833984375,66.40635681152344,843.7513427734375,578.1259155273438
881.70947265625,840.5849609375,62.5000991821289,839.8450927734375,574.2196655273438
876.7745361328125,837.2949829101562,58.59384155273438,835.9387817382812,570.3134155273438
868.5496215820312,843.8749389648438,62.5000991821289,835.9387817382812,574.2196655273438
868.5496215820312,843.8749389648438,62.5000991821289,839.8450927734375,582.0321655273438
873.4845581054688,837.2949829101562,62.5000991821289,839.8450927734375,582.0321655273438
860.32470703125,825.7801513671875,62.5000991821289,839.8450927734375,582.0321655273438
853.7448120117188,830.715087890625,66.40635681152344,832.0325317382812,582.0321655273438
843.8749389648438,830.715087890625,66.40635681152344,832.0325317382812,582.0321655273438
840.5849609375,834.0050048828125,66.40635681152344,859.3763427734375,582.0321655273438
837.2949829101562,842.2299194335938,54.687583923339844,832.0325317382812,558.5946044921875
837.2949829101562,842.2299194335938,42.96881866455078,843.7513427734375,550.7821044921875
840.5849609375,835.6500244140625,42.96881866455078,843.7513427734375,550.7821044921875
835.6500244140625,827.4251098632812,70.31260681152344,847.6575927734375,558.5946044921875
848.8098754882812,825.7801513671875,78.1251220703125,843.7513427734375,554.6883544921875
843.8749389648438,840.5849609375,78.1251220703125,843.7513427734375,554.6883544921875
838.9400024414062,840.5849609375,70.31260681152344,863.2825927734375,562.5008544921875
840.5849609375,840.5849609375,70.31260681152344,863.2825927734375,562.5008544921875
838.9400024414062,848.8098754882812,70.31260681152344,851.5638427734375,554.6883544921875
835.6500244140625,843.8749389648438,70.31260681152344,851.5638427734375,554.6883544921875
838.9400024414062,842.2299194335938,82.03137969970703,851.5638427734375,550.7821044921875
848.8098754882812,852.0997924804688,85.93763732910156,843.7513427734375,554.6883544921875
845.5198974609375,857.0347290039062,85.93763732910156,851.5638427734375,558.5946044921875
842.2299194335938,868.5496215820312,78.1251220703125,863.2825927734375,558.5946044921875
837.2949829101562,863.6146850585938,101.56266021728516,855.4700927734375,554.6883544921875
850.454833984375,866.9046630859375,101.56266021728516,855.4700927734375,554.6883544921875
848.8098754882812,863.6146850585938,74.21886444091797,812.5012817382812,542.9696044921875
852.0997924804688,861.9697265625,74.21886444091797,812.5012817382812,542.9696044921875
858.6797485351562,843.8749389648438,70.31260681152344,843.7513427734375,578.1259155273438
853.7448120117188,807.6853637695312,70.31260681152344,843.7513427734375,578.1259155273438
850.454833984375,794.5255126953125,50.78133010864258,851.5638427734375,605.4697265625
827.4251098632812,784.6556396484375,50.78133010864258,851.5638427734375,605.4697265625
815.9102783203125,778.07568359375,50.78133010864258,851.5638427734375,605.4697265625
822.4901733398438,787.945556640625,11.718768119812012,855.4700927734375,601.5634155273438
809.330322265625,806.0403442382812,-11.718768119812012,847.6575927734375,582.0321655273438
809.330322265625,806.0403442382812,-3.9062561988830566,835.9387817382812,582.0321655273438
809.330322265625,806.0403442382812,3.9062561988830566,839.8450927734375,585.9384155273438
807.6853637695312,812.6203002929688,3.9062561988830566,839.8450927734375,585.9384155273438
824.1351318359375,842.2299194335938,-35.15630340576172,839.8450927734375,578.1259155273438
824.1351318359375,840.5849609375,-35.15630340576172,839.8450927734375,578.1259155273438
837.2949829101562,837.2949829101562,-19.531280517578125,835.9387817382812,582.0321655273438
840.5849609375,837.2949829101562,-7.812512397766112,832.0325317382812,582.0321655273438
827.4251098632812,830.715087890625,-7.812512397766112,832.0325317382812,582.0321655273438
829.070068359375,829.070068359375,0.0,847.6575927734375,597.6571655273438
819.2001953125,825.7801513671875,-7.812512397766112,824.2200317382812,597.6571655273438
825.7801513671875,815.9102783203125,-23.437536239624023,832.0325317382812,593.7509155273438
820.84521484375,814.2652587890625,-31.25004959106445,851.5638427734375,593.7509155273438
820.84521484375,814.2652587890625,-27.343791961669922,871.0950927734375,589.8446655273438
830.715087890625,809.330322265625,-27.343791961669922,871.0950927734375,589.8446655273438
825.7801513671875,815.9102783203125,-27.343791961669922,871.0950927734375,589.8446655273438
825.7801513671875,824.1351318359375,-15.625024795532227,851.5638427734375,585.9384155273438
834.0050048828125,837.2949829101562,-15.625024795532227,851.5638427734375,585.9384155273438
834.0050048828125,837.2949829101562,-23.437536239624023,894.5326538085938,589.8446655273438
810.9752807617188,829.070068359375,-31.25004959106445,914.0639038085938,574.2196655273438
