EEG1,EEG2,Acc_X,Acc_Y,Acc_Z
866.9046630859375,799.46044921875,-113.28142547607422,968.7515258789062,289.0629577636719
866.9046630859375,796.1704711914062,-199.21905517578125,988.2827758789062,261.71914672851557
866.9046630859375,796.1704711914062,-207.0315704345703,964.8452758789062,265.6254272460937
850.454833984375,796.1704711914062,-207.0315704345703,964.8452758789062,265.6254272460937
853.7448120117188,792.8805541992188,-214.84408569335938,960.9390258789062,253.9066467285156
847.1648559570312,792.8805541992188,-183.5940399169922,976.5640258789062,250.0003967285156
853.7448120117188,801.1054077148438,-144.53147888183594,960.9390258789062,246.09413146972656
855.3897705078125,801.1054077148438,-152.343994140625,980.4702758789062,238.2816162109375
861.9697265625,806.0403442382812,-93.7501449584961,972.6577758789062,292.9692077636719
861.9697265625,806.0403442382812,-93.7501449584961,996.0953369140624,308.59423828125
852.0997924804688,806.0403442382812,-156.250244140625,988.2827758789062,265.6254272460937
852.0997924804688,806.0403442382812,-136.71896362304688,1019.5328369140624,277.3441772460937
852.0997924804688,807.6853637695312,-101.56266021728516,1011.7203369140624,300.7817077636719
845.5198974609375,806.0403442382812,-167.96900939941406,976.5640258789062,308.59423828125
858.6797485351562,809.330322265625,-171.87527465820312,984.3765258789062,300.7817077636719
858.6797485351562,809.330322265625,-175.78152465820312,1000.0015869140624,292.9692077636719
855.3897705078125,817.5552368164062,-183.5940399169922,992.1890258789062,289.0629577636719
860.32470703125,814.2652587890625,-179.68777465820312,976.5640258789062,281.2504272460937
860.32470703125,814.2652587890625,-175.78152465820312,972.6577758789062,281.2504272460937
868.5496215820312,820.84521484375,-183.5940399169922,984.3765258789062,234.3753662109375
868.5496215820312,820.84521484375,-187.5002899169922,988.2827758789062,222.65660095214844
865.2596435546875,815.9102783203125,-187.5002899169922,988.2827758789062,222.65660095214844
866.9046630859375,817.5552368164062,-179.68777465820312,984.3765258789062,199.21905517578125
843.8749389648438,819.2001953125,-191.40655517578125,980.4702758789062,156.250244140625
853.7448120117188,820.84521484375,-187.5002899169922,980.4702758789062,148.43772888183594
853.7448120117188,820.84521484375,-191.40655517578125,984.3765258789062,148.43772888183594
853.7448120117188,824.1351318359375,-195.31280517578125,992.1890258789062,140.62521362304688
852.0997924804688,827.4251098632812,-191.40655517578125,996.0953369140624,140.62521362304688
852.0997924804688,827.4251098632812,-199.21905517578125,992.1890258789062,136.71896362304688
853.7448120117188,819.2001953125,-199.21905517578125,992.1890258789062,140.62521362304688
834.0050048828125,829.070068359375,-203.1253204345703,1000.0015869140624,140.62521362304688
834.0050048828125,829.070068359375,-207.0315704345703,1000.0015869140624,140.62521362304688
845.5198974609375,822.4901733398438,-207.0315704345703,988.2827758789062,148.43772888183594
847.1648559570312,817.5552368164062,-210.93783569335938,1000.0015869140624,160.156494140625
847.1648559570312,817.5552368164062,-203.1253204345703,1003.9078369140624,164.06275939941406
852.0997924804688,822.4901733398438,-203.1253204345703,1003.9078369140624,164.06275939941406
855.3897705078125,817.5552368164062,-207.0315704345703,988.2827758789062,160.156494140625
855.3897705078125,819.2001953125,-207.0315704345703,1000.0015869140624,156.250244140625
852.0997924804688,807.6853637695312,-203.1253204345703,1000.0015869140624,164.06275939941406
853.7448120117188,807.6853637695312,-199.21905517578125,1003.9078369140624,156.250244140625
853.7448120117188,807.6853637695312,-199.21905517578125,1003.9078369140624,152.343994140625
857.0347290039062,807.6853637695312,-203.1253204345703,996.0953369140624,152.343994140625
866.9046630859375,797.8154907226562,-203.1253204345703,992.1890258789062,152.343994140625
866.9046630859375,797.8154907226562,-203.1253204345703,1000.0015869140624,148.43772888183594
855.3897705078125,807.6853637695312,-195.31280517578125,996.0953369140624,152.343994140625
855.3897705078125,807.6853637695312,-191.40655517578125,996.0953369140624,152.343994140625
855.3897705078125,807.6853637695312,-187.5002899169922,996.0953369140624,152.343994140625
861.9697265625,809.330322265625,-187.5002899169922,996.0953369140624,152.343994140625
861.9697265625,806.0403442382812,-195.31280517578125,988.2827758789062,148.43772888183594
861.9697265625,806.0403442382812,-191.40655517578125,996.0953369140624,152.343994140625
857.0347290039062,810.9752807617188,-191.40655517578125,1003.9078369140624,152.343994140625
852.0997924804688,814.2652587890625,-191.40655517578125,992.1890258789062,160.156494140625
853.7448120117188,814.2652587890625,-195.31280517578125,1000.0015869140624,160.156494140625
834.0050048828125,825.7801513671875,-195.31280517578125,996.0953369140624,164.06275939941406
834.0050048828125,825.7801513671875,-191.40655517578125,996.0953369140624,164.06275939941406
850.454833984375,824.1351318359375,-187.5002899169922,996.0953369140624,167.96900939941406
850.454833984375,824.1351318359375,-187.5002899169922,1000.0015869140624,164.06275939941406
850.454833984375,824.1351318359375,-187.5002899169922,1000.0015869140624,167.96900939941406
852.0997924804688,820.84521484375,-187.5002899169922,1000.0015869140624,167.96900939941406
857.0347290039062,822.4901733398438,-187.5002899169922,992.1890258789062,167.96900939941406
857.0347290039062,812.6203002929688,-187.5002899169922,1000.0015869140624,164.06275939941406
858.6797485351562,815.9102783203125,-175.78152465820312,1003.9078369140624,167.96900939941406
843.8749389648438,810.9752807617188,-171.87527465820312,1000.0015869140624,167.96900939941406
843.8749389648438,810.9752807617188,-167.96900939941406,996.0953369140624,171.87527465820312
853.7448120117188,817.5552368164062,-175.78152465820312,996.0953369140624,167.96900939941406
848.8098754882812,815.9102783203125,-183.5940399169922,996.0953369140624,167.96900939941406
848.8098754882812,815.9102783203125,-183.5940399169922,1000.0015869140624,171.87527465820312
853.7448120117188,817.5552368164062,-179.68777465820312,996.0953369140624,171.87527465820312
853.7448120117188,817.5552368164062,-175.78152465820312,996.0953369140624,175.78152465820312
853.7448120117188,817.5552368164062,-171.87527465820312,1000.0015869140624,179.68777465820312
853.7448120117188,817.5552368164062,-167.96900939941406,1000.0015869140624,179.68777465820312
847.1648559570312,822.4901733398438,-167.96900939941406,1000.0015869140624,179.68777465820312
847.1648559570312,822.4901733398438,-175.78152465820312,1000.0015869140624,179.68777465820312
848.8098754882812,819.2001953125,-175.78152465820312,992.1890258789062,179.68777465820312
855.3897705078125,819.2001953125,-175.78152465820312,1000.0015869140624,179.68777465820312
855.3897705078125,819.2001953125,-171.87527465820312,996.0953369140624,183.5940399169922
857.0347290039062,819.2001953125,-175.78152465820312,996.0953369140624,179.68777465820312
857.0347290039062,812.6203002929688,-171.87527465820312,1003.9078369140624,183.5940399169922
857.0347290039062,815.9102783203125,-167.96900939941406,996.0953369140624,187.5002899169922
852.0997924804688,810.9752807617188,-171.87527465820312,996.0953369140624,191.40655517578125
855.3897705078125,809.330322265625,-171.87527465820312,996.0953369140624,191.40655517578125
855.3897705078125,809.330322265625,-167.96900939941406,996.0953369140624,195.31280517578125
858.6797485351562,802.7504272460938,-167.96900939941406,996.0953369140624,195.31280517578125
858.6797485351562,802.7504272460938,-167.96900939941406,996.0953369140624,191.40655517578125
861.9697265625,799.46044921875,-167.96900939941406,996.0953369140624,191.40655517578125
855.3897705078125,806.0403442382812,-171.87527465820312,992.1890258789062,187.5002899169922
855.3897705078125,806.0403442382812,-171.87527465820312,996.0953369140624,187.5002899169922
861.9697265625,802.7504272460938,-171.87527465820312,996.0953369140624,187.5002899169922
852.0997924804688,810.9752807617188,-167.96900939941406,1000.0015869140624,187.5002899169922
861.9697265625,817.5552368164062,-167.96900939941406,1000.0015869140624,187.5002899169922
861.9697265625,817.5552368164062,-171.87527465820312,992.1890258789062,191.40655517578125
861.9697265625,817.5552368164062,-175.78152465820312,988.2827758789062,183.5940399169922
860.32470703125,817.5552368164062,-183.5940399169922,988.2827758789062,179.68777465820312
861.9697265625,812.6203002929688,-164.06275939941406,1000.0015869140624,195.31280517578125
860.32470703125,815.9102783203125,-164.06275939941406,1003.9078369140624,191.40655517578125
857.0347290039062,814.2652587890625,-167.96900939941406,996.0953369140624,191.40655517578125
857.0347290039062,814.2652587890625,-175.78152465820312,996.0953369140624,191.40655517578125
857.0347290039062,814.2652587890625,-179.68777465820312,992.1890258789062,187.5002899169922
853.7448120117188,822.4901733398438,-175.78152465820312,992.1890258789062,195.31280517578125
855.3897705078125,820.84521484375,-171.87527465820312,1003.9078369140624,191.40655517578125
855.3897705078125,820.84521484375,-171.87527465820312,988.2827758789062,191.40655517578125
857.0347290039062,827.4251098632812,-171.87527465820312,988.2827758789062,191.40655517578125
852.0997924804688,834.0050048828125,-171.87527465820312,1000.0015869140624,195.31280517578125
850.454833984375,842.2299194335938,-171.87527465820312,996.0953369140624,195.31280517578125
852.0997924804688,843.8749389648438,-171.87527465820312,996.0953369140624,195.31280517578125
866.9046630859375,843.8749389648438,-175.78152465820312,996.0953369140624,191.40655517578125
865.2596435546875,845.5198974609375,-164.06275939941406,1000.0015869140624,199.21905517578125
868.5496215820312,835.6500244140625,-164.06275939941406,996.0953369140624,195.31280517578125
861.9697265625,838.9400024414062,-164.06275939941406,992.1890258789062,195.31280517578125
858.6797485351562,835.6500244140625,-175.78152465820312,992.1890258789062,187.5002899169922
863.6146850585938,838.9400024414062,-167.96900939941406,1003.9078369140624,195.31280517578125
855.3897705078125,838.9400024414062,-175.78152465820312,988.2827758789062,191.40655517578125
855.3897705078125,838.9400024414062,-171.87527465820312,992.1890258789062,191.40655517578125
855.3897705078125,838.9400024414062,-171.87527465820312,996.0953369140624,191.40655517578125
857.0347290039062,837.2949829101562,-171.87527465820312,996.0953369140624,191.40655517578125
860.32470703125,837.2949829101562,-175.78152465820312,992.1890258789062,191.40655517578125
865.2596435546875,834.0050048828125,-171.87527465820312,988.2827758789062,191.40655517578125
857.0347290039062,837.2949829101562,-167.96900939941406,988.2827758789062,195.31280517578125
857.0347290039062,837.2949829101562,-167.96900939941406,992.1890258789062,191.40655517578125
857.0347290039062,837.2949829101562,-179.68777465820312,996.0953369140624,187.5002899169922
858.6797485351562,838.9400024414062,-179.68777465820312,996.0953369140624,187.5002899169922
857.0347290039062,834.0050048828125,-167.96900939941406,1003.9078369140624,191.40655517578125
857.0347290039062,834.0050048828125,-167.96900939941406,1000.0015869140624,191.40655517578125
865.2596435546875,827.4251098632812,-167.96900939941406,1000.0015869140624,191.40655517578125
858.6797485351562,830.715087890625,-164.06275939941406,996.0953369140624,195.31280517578125
858.6797485351562,834.0050048828125,-164.06275939941406,996.0953369140624,195.31280517578125
858.6797485351562,834.0050048828125,-167.96900939941406,996.0953369140624,191.40655517578125
861.9697265625,837.2949829101562,-167.96900939941406,996.0953369140624,195.31280517578125
860.32470703125,838.9400024414062,-167.96900939941406,992.1890258789062,195.31280517578125
858.6797485351562,832.3600463867188,-167.96900939941406,992.1890258789062,195.31280517578125
860.32470703125,838.9400024414062,-167.96900939941406,1000.0015869140624,199.21905517578125
858.6797485351562,837.2949829101562,-171.87527465820312,996.0953369140624,199.21905517578125
858.6797485351562,837.2949829101562,-167.96900939941406,996.0953369140624,199.21905517578125
861.9697265625,835.6500244140625,-171.87527465820312,992.1890258789062,199.21905517578125
861.9697265625,840.5849609375,-167.96900939941406,988.2827758789062,199.21905517578125
861.9697265625,840.5849609375,-164.06275939941406,1000.0015869140624,203.1253204345703
868.5496215820312,837.2949829101562,-164.06275939941406,1000.0015869140624,203.1253204345703
855.3897705078125,837.2949829101562,-171.87527465820312,988.2827758789062,191.40655517578125
863.6146850585938,835.6500244140625,-171.87527465820312,996.0953369140624,187.5002899169922
863.6146850585938,838.9400024414062,-167.96900939941406,996.0953369140624,187.5002899169922
860.32470703125,840.5849609375,-171.87527465820312,996.0953369140624,191.40655517578125
860.32470703125,840.5849609375,-167.96900939941406,992.1890258789062,191.40655517578125
855.3897705078125,838.9400024414062,-167.96900939941406,992.1890258789062,191.40655517578125
855.3897705078125,838.9400024414062,-167.96900939941406,996.0953369140624,195.31280517578125
855.3897705078125,837.2949829101562,-164.06275939941406,1000.0015869140624,191.40655517578125
853.7448120117188,842.2299194335938,-171.87527465820312,996.0953369140624,191.40655517578125
861.9697265625,835.6500244140625,-171.87527465820312,996.0953369140624,191.40655517578125
847.1648559570312,832.3600463867188,-164.06275939941406,992.1890258789062,191.40655517578125
847.1648559570312,832.3600463867188,-171.87527465820312,996.0953369140624,187.5002899169922
857.0347290039062,830.715087890625,-171.87527465820312,996.0953369140624,195.31280517578125
857.0347290039062,830.715087890625,-171.87527465820312,996.0953369140624,191.40655517578125
858.6797485351562,834.0050048828125,-167.96900939941406,996.0953369140624,195.31280517578125
860.32470703125,837.2949829101562,-171.87527465820312,996.0953369140624,191.40655517578125
860.32470703125,837.2949829101562,-167.96900939941406,1000.0015869140624,195.31280517578125
857.0347290039062,837.2949829101562,-167.96900939941406,996.0953369140624,195.31280517578125
857.0347290039062,837.2949829101562,-164.06275939941406,996.0953369140624,195.31280517578125
852.0997924804688,832.3600463867188,-164.06275939941406,996.0953369140624,195.31280517578125
852.0997924804688,832.3600463867188,-160.156494140625,996.0953369140624,203.1253204345703
852.0997924804688,832.3600463867188,-171.87527465820312,996.0953369140624,191.40655517578125
860.32470703125,838.9400024414062,-160.156494140625,1003.9078369140624,199.21905517578125
860.32470703125,838.9400024414062,-164.06275939941406,1003.9078369140624,195.31280517578125
860.32470703125,842.2299194335938,-164.06275939941406,1003.9078369140624,195.31280517578125
861.9697265625,834.0050048828125,-164.06275939941406,992.1890258789062,187.5002899169922
861.9697265625,834.0050048828125,-171.87527465820312,988.2827758789062,183.5940399169922
855.3897705078125,834.0050048828125,-175.78152465820312,992.1890258789062,179.68777465820312
860.32470703125,843.8749389648438,-175.78152465820312,996.0953369140624,179.68777465820312
860.32470703125,843.8749389648438,-175.78152465820312,992.1890258789062,183.5940399169922
861.9697265625,837.2949829101562,-175.78152465820312,992.1890258789062,183.5940399169922
861.9697265625,840.5849609375,-171.87527465820312,1003.9078369140624,183.5940399169922
861.9697265625,840.5849609375,-171.87527465820312,992.1890258789062,183.5940399169922
861.9697265625,837.2949829101562,-171.87527465820312,992.1890258789062,187.5002899169922
861.9697265625,837.2949829101562,-171.87527465820312,1000.0015869140624,187.5002899169922
857.0347290039062,832.3600463867188,-171.87527465820312,1000.0015869140624,187.5002899169922
861.9697265625,829.070068359375,-171.87527465820312,996.0953369140624,187.5002899169922
868.5496215820312,830.715087890625,-171.87527465820312,996.0953369140624,187.5002899169922
865.2596435546875,834.0050048828125,-171.87527465820312,992.1890258789062,187.5002899169922
868.5496215820312,825.7801513671875,-171.87527465820312,996.0953369140624,187.5002899169922
861.9697265625,825.7801513671875,-175.78152465820312,996.0953369140624,179.68777465820312
861.9697265625,825.7801513671875,-175.78152465820312,992.1890258789062,183.5940399169922
861.9697265625,822.4901733398438,-175.78152465820312,992.1890258789062,183.5940399169922
860.32470703125,825.7801513671875,-171.87527465820312,988.2827758789062,187.5002899169922
863.6146850585938,822.4901733398438,-171.87527465820312,988.2827758789062,187.5002899169922
861.9697265625,815.9102783203125,-179.68777465820312,996.0953369140624,183.5940399169922
858.6797485351562,817.5552368164062,-179.68777465820312,996.0953369140624,187.5002899169922
857.0347290039062,820.84521484375,-175.78152465820312,996.0953369140624,187.5002899169922
857.0347290039062,820.84521484375,-171.87527465820312,996.0953369140624,187.5002899169922
857.0347290039062,820.84521484375,-175.78152465820312,1003.9078369140624,187.5002899169922
852.0997924804688,824.1351318359375,-167.96900939941406,992.1890258789062,183.5940399169922
852.0997924804688,822.4901733398438,-171.87527465820312,996.0953369140624,183.5940399169922
852.0997924804688,822.4901733398438,-171.87527465820312,996.0953369140624,187.5002899169922
858.6797485351562,827.4251098632812,-171.87527465820312,996.0953369140624,187.5002899169922
860.32470703125,825.7801513671875,-167.96900939941406,1000.0015869140624,187.5002899169922
863.6146850585938,830.715087890625,-167.96900939941406,1000.0015869140624,187.5002899169922
860.32470703125,830.715087890625,-171.87527465820312,1003.9078369140624,187.5002899169922
863.6146850585938,822.4901733398438,-171.87527465820312,1003.9078369140624,187.5002899169922
863.6146850585938,824.1351318359375,-171.87527465820312,992.1890258789062,187.5002899169922
863.6146850585938,824.1351318359375,-167.96900939941406,988.2827758789062,187.5002899169922
857.0347290039062,829.070068359375,-171.87527465820312,996.0953369140624,187.5002899169922
857.0347290039062,829.070068359375,-167.96900939941406,996.0953369140624,187.5002899169922
868.5496215820312,834.0050048828125,-167.96900939941406,996.0953369140624,187.5002899169922
861.9697265625,830.715087890625,-167.96900939941406,996.0953369140624,187.5002899169922
861.9697265625,830.715087890625,-171.87527465820312,1000.0015869140624,187.5002899169922
866.9046630859375,820.84521484375,-171.87527465820312,1000.0015869140624,187.5002899169922
866.9046630859375,820.84521484375,-171.87527465820312,996.0953369140624,187.5002899169922
866.9046630859375,820.84521484375,-171.87527465820312,992.1890258789062,187.5002899169922
861.9697265625,819.2001953125,-171.87527465820312,992.1890258789062,187.5002899169922
857.0347290039062,829.070068359375,-175.78152465820312,992.1890258789062,187.5002899169922
860.32470703125,827.4251098632812,-179.68777465820312,996.0953369140624,183.5940399169922
858.6797485351562,820.84521484375,-167.96900939941406,1000.0015869140624,187.5002899169922
858.6797485351562,820.84521484375,-164.06275939941406,996.0953369140624,191.40655517578125
857.0347290039062,822.4901733398438,-167.96900939941406,992.1890258789062,187.5002899169922
857.0347290039062,820.84521484375,-171.87527465820312,988.2827758789062,187.5002899169922
853.7448120117188,822.4901733398438,-171.87527465820312,1000.0015869140624,191.40655517578125
855.3897705078125,825.7801513671875,-171.87527465820312,996.0953369140624,191.40655517578125
858.6797485351562,829.070068359375,-171.87527465820312,992.1890258789062,191.40655517578125
858.6797485351562,829.070068359375,-171.87527465820312,996.0953369140624,191.40655517578125
858.6797485351562,824.1351318359375,-171.87527465820312,996.0953369140624,191.40655517578125
861.9697265625,825.7801513671875,-167.96900939941406,996.0953369140624,191.40655517578125
861.9697265625,825.7801513671875,-167.96900939941406,992.1890258789062,191.40655517578125
860.32470703125,827.4251098632812,-167.96900939941406,992.1890258789062,191.40655517578125
860.32470703125,832.3600463867188,-164.06275939941406,996.0953369140624,199.21905517578125
861.9697265625,801.1054077148438,-167.96900939941406,1003.9078369140624,203.1253204345703
860.32470703125,810.9752807617188,-167.96900939941406,1003.9078369140624,203.1253204345703
866.9046630859375,806.0403442382812,-167.96900939941406,996.0953369140624,203.1253204345703
866.9046630859375,806.0403442382812,-167.96900939941406,992.1890258789062,203.1253204345703
863.6146850585938,809.330322265625,-167.96900939941406,992.1890258789062,199.21905517578125
857.0347290039062,812.6203002929688,-167.96900939941406,992.1890258789062,203.1253204345703
860.32470703125,807.6853637695312,-171.87527465820312,996.0953369140624,195.31280517578125
860.32470703125,807.6853637695312,-175.78152465820312,996.0953369140624,191.40655517578125
857.0347290039062,809.330322265625,-175.78152465820312,996.0953369140624,191.40655517578125
852.0997924804688,815.9102783203125,-171.87527465820312,996.0953369140624,191.40655517578125
853.7448120117188,812.6203002929688,-171.87527465820312,992.1890258789062,187.5002899169922
855.3897705078125,820.84521484375,-171.87527465820312,992.1890258789062,187.5002899169922
853.7448120117188,827.4251098632812,-171.87527465820312,996.0953369140624,187.5002899169922
857.0347290039062,819.2001953125,-171.87527465820312,992.1890258789062,187.5002899169922
855.3897705078125,820.84521484375,-164.06275939941406,992.1890258789062,191.40655517578125
855.3897705078125,820.84521484375,-167.96900939941406,996.0953369140624,191.40655517578125
858.6797485351562,830.715087890625,-164.06275939941406,992.1890258789062,191.40655517578125
858.6797485351562,830.715087890625,-171.87527465820312,996.0953369140624,191.40655517578125
858.6797485351562,830.715087890625,-175.78152465820312,1000.0015869140624,187.5002899169922
857.0347290039062,827.4251098632812,-175.78152465820312,1000.0015869140624,187.5002899169922
860.32470703125,825.7801513671875,-167.96900939941406,996.0953369140624,195.31280517578125
861.9697265625,815.9102783203125,-167.96900939941406,996.0953369140624,195.31280517578125
865.2596435546875,814.2652587890625,-171.87527465820312,996.0953369140624,191.40655517578125
855.3897705078125,819.2001953125,-171.87527465820312,996.0953369140624,191.40655517578125
860.32470703125,819.2001953125,-175.78152465820312,996.0953369140624,191.40655517578125
860.32470703125,819.2001953125,-171.87527465820312,996.0953369140624,195.31280517578125
857.0347290039062,819.2001953125,-171.87527465820312,996.0953369140624,191.40655517578125
853.7448120117188,819.2001953125,-167.96900939941406,996.0953369140624,191.40655517578125
850.454833984375,817.5552368164062,-167.96900939941406,992.1890258789062,195.31280517578125
850.454833984375,817.5552368164062,-164.06275939941406,992.1890258789062,195.31280517578125
857.0347290039062,819.2001953125,-171.87527465820312,1000.0015869140624,195.31280517578125
853.7448120117188,822.4901733398438,-175.78152465820312,992.1890258789062,191.40655517578125
853.7448120117188,822.4901733398438,-164.06275939941406,1000.0015869140624,199.21905517578125
853.7448120117188,822.4901733398438,-167.96900939941406,1003.9078369140624,195.31280517578125
852.0997924804688,827.4251098632812,-167.96900939941406,1003.9078369140624,195.31280517578125
848.8098754882812,820.84521484375,-167.96900939941406,992.1890258789062,195.31280517578125
860.32470703125,824.1351318359375,-171.87527465820312,992.1890258789062,191.40655517578125
858.6797485351562,827.4251098632812,-167.96900939941406,996.0953369140624,195.31280517578125
860.32470703125,829.070068359375,-167.96900939941406,992.1890258789062,195.31280517578125
860.32470703125,830.715087890625,-167.96900939941406,996.0953369140624,191.40655517578125
858.6797485351562,825.7801513671875,-167.96900939941406,996.0953369140624,195.31280517578125
860.32470703125,820.84521484375,-167.96900939941406,992.1890258789062,195.31280517578125
863.6146850585938,824.1351318359375,-164.06275939941406,996.0953369140624,195.31280517578125
861.9697265625,824.1351318359375,-167.96900939941406,992.1890258789062,195.31280517578125
860.32470703125,829.070068359375,-167.96900939941406,1003.9078369140624,195.31280517578125
860.32470703125,829.070068359375,-164.06275939941406,988.2827758789062,195.31280517578125
855.3897705078125,814.2652587890625,-164.06275939941406,988.2827758789062,195.31280517578125
855.3897705078125,820.84521484375,-171.87527465820312,996.0953369140624,191.40655517578125
855.3897705078125,820.84521484375,-171.87527465820312,992.1890258789062,195.31280517578125
852.0997924804688,825.7801513671875,-171.87527465820312,992.1890258789062,195.31280517578125
855.3897705078125,824.1351318359375,-171.87527465820312,992.1890258789062,195.31280517578125
855.3897705078125,824.1351318359375,-171.87527465820312,1000.0015869140624,195.31280517578125
853.7448120117188,830.715087890625,-167.96900939941406,996.0953369140624,191.40655517578125
855.3897705078125,837.2949829101562,-167.96900939941406,992.1890258789062,195.31280517578125
852.0997924804688,827.4251098632812,-164.06275939941406,992.1890258789062,191.40655517578125
852.0997924804688,825.7801513671875,-164.06275939941406,996.0953369140624,195.31280517578125
852.0997924804688,825.7801513671875,-171.87527465820312,992.1890258789062,191.40655517578125
863.6146850585938,832.3600463867188,-171.87527465820312,992.1890258789062,191.40655517578125
857.0347290039062,832.3600463867188,-167.96900939941406,992.1890258789062,195.31280517578125
857.0347290039062,832.3600463867188,-164.06275939941406,1000.0015869140624,191.40655517578125
857.0347290039062,832.3600463867188,-167.96900939941406,1000.0015869140624,195.31280517578125
852.0997924804688,829.070068359375,-164.06275939941406,992.1890258789062,195.31280517578125
852.0997924804688,829.070068359375,-167.96900939941406,992.1890258789062,191.40655517578125
858.6797485351562,820.84521484375,-167.96900939941406,992.1890258789062,191.40655517578125
858.6797485351562,822.4901733398438,-171.87527465820312,992.1890258789062,191.40655517578125
861.9697265625,822.4901733398438,-171.87527465820312,992.1890258789062,191.40655517578125
860.32470703125,820.84521484375,-171.87527465820312,996.0953369140624,195.31280517578125
858.6797485351562,827.4251098632812,-171.87527465820312,992.1890258789062,195.31280517578125
858.6797485351562,827.4251098632812,-171.87527465820312,996.0953369140624,191.40655517578125
850.454833984375,822.4901733398438,-167.96900939941406,992.1890258789062,199.21905517578125
850.454833984375,819.2001953125,-171.87527465820312,996.0953369140624,199.21905517578125
850.454833984375,819.2001953125,-171.87527465820312,996.0953369140624,195.31280517578125
850.454833984375,819.2001953125,-167.96900939941406,992.1890258789062,199.21905517578125
850.454833984375,817.5552368164062,-179.68777465820312,992.1890258789062,191.40655517578125
850.454833984375,817.5552368164062,-175.78152465820312,992.1890258789062,195.31280517578125
848.8098754882812,815.9102783203125,-167.96900939941406,996.0953369140624,203.1253204345703
850.454833984375,822.4901733398438,-167.96900939941406,988.2827758789062,191.40655517578125
855.3897705078125,822.4901733398438,-167.96900939941406,988.2827758789062,191.40655517578125
852.0997924804688,812.6203002929688,-171.87527465820312,992.1890258789062,199.21905517578125
847.1648559570312,822.4901733398438,-171.87527465820312,996.0953369140624,199.21905517578125
847.1648559570312,822.4901733398438,-171.87527465820312,1000.0015869140624,203.1253204345703
858.6797485351562,829.070068359375,-179.68777465820312,996.0953369140624,199.21905517578125
855.3897705078125,822.4901733398438,-171.87527465820312,992.1890258789062,199.21905517578125
848.8098754882812,809.330322265625,-171.87527465820312,992.1890258789062,191.40655517578125
845.5198974609375,809.330322265625,-175.78152465820312,996.0953369140624,187.5002899169922
850.454833984375,802.7504272460938,-164.06275939941406,1003.9078369140624,191.40655517578125
850.454833984375,802.7504272460938,-167.96900939941406,1000.0015869140624,195.31280517578125
848.8098754882812,807.6853637695312,-164.06275939941406,992.1890258789062,191.40655517578125
848.8098754882812,807.6853637695312,-167.96900939941406,992.1890258789062,191.40655517578125
853.7448120117188,820.84521484375,-171.87527465820312,996.0953369140624,191.40655517578125
857.0347290039062,829.070068359375,-171.87527465820312,996.0953369140624,191.40655517578125
857.0347290039062,829.070068359375,-171.87527465820312,992.1890258789062,195.31280517578125
858.6797485351562,830.715087890625,-171.87527465820312,992.1890258789062,195.31280517578125
853.7448120117188,837.2949829101562,-171.87527465820312,1000.0015869140624,195.31280517578125
853.7448120117188,837.2949829101562,-171.87527465820312,996.0953369140624,195.31280517578125
852.0997924804688,827.4251098632812,-171.87527465820312,996.0953369140624,195.31280517578125
860.32470703125,824.1351318359375,-171.87527465820312,996.0953369140624,195.31280517578125
861.9697265625,838.9400024414062,-171.87527465820312,996.0953369140624,195.31280517578125
858.6797485351562,835.6500244140625,-167.96900939941406,992.1890258789062,195.31280517578125
858.6797485351562,835.6500244140625,-167.96900939941406,1000.0015869140624,195.31280517578125
858.6797485351562,835.6500244140625,-171.87527465820312,996.0953369140624,191.40655517578125
855.3897705078125,834.0050048828125,-164.06275939941406,992.1890258789062,199.21905517578125
853.7448120117188,829.070068359375,-164.06275939941406,988.2827758789062,191.40655517578125
853.7448120117188,829.070068359375,-164.06275939941406,992.1890258789062,191.40655517578125
842.2299194335938,825.7801513671875,-167.96900939941406,992.1890258789062,187.5002899169922
842.2299194335938,825.7801513671875,-167.96900939941406,1000.0015869140624,191.40655517578125
842.2299194335938,825.7801513671875,-167.96900939941406,996.0953369140624,195.31280517578125
853.7448120117188,834.0050048828125,-167.96900939941406,996.0953369140624,195.31280517578125
853.7448120117188,834.0050048828125,-167.96900939941406,996.0953369140624,191.40655517578125
857.0347290039062,830.715087890625,-167.96900939941406,992.1890258789062,191.40655517578125
855.3897705078125,837.2949829101562,-167.96900939941406,996.0953369140624,191.40655517578125
852.0997924804688,827.4251098632812,-171.87527465820312,996.0953369140624,191.40655517578125
852.0997924804688,827.4251098632812,-167.96900939941406,996.0953369140624,195.31280517578125
847.1648559570312,832.3600463867188,-164.06275939941406,996.0953369140624,195.31280517578125
857.0347290039062,807.6853637695312,-167.96900939941406,996.0953369140624,191.40655517578125
857.0347290039062,807.6853637695312,-164.06275939941406,996.0953369140624,195.31280517578125
857.0347290039062,817.5552368164062,-164.06275939941406,1007.8140869140624,195.31280517578125
853.7448120117188,817.5552368164062,-164.06275939941406,992.1890258789062,195.31280517578125
847.1648559570312,817.5552368164062,-171.87527465820312,996.0953369140624,191.40655517578125
847.1648559570312,817.5552368164062,-171.87527465820312,992.1890258789062,195.31280517578125
855.3897705078125,824.1351318359375,-171.87527465820312,996.0953369140624,195.31280517578125
850.454833984375,824.1351318359375,-171.87527465820312,996.0953369140624,191.40655517578125
850.454833984375,824.1351318359375,-167.96900939941406,992.1890258789062,195.31280517578125
850.454833984375,824.1351318359375,-167.96900939941406,996.0953369140624,191.40655517578125
848.8098754882812,814.2652587890625,-164.06275939941406,996.0953369140624,195.31280517578125
855.3897705078125,814.2652587890625,-164.06275939941406,992.1890258789062,195.31280517578125
855.3897705078125,810.9752807617188,-167.96900939941406,1000.0015869140624,191.40655517578125
855.3897705078125,797.8154907226562,-167.96900939941406,1003.9078369140624,195.31280517578125
855.3897705078125,801.1054077148438,-164.06275939941406,992.1890258789062,195.31280517578125
855.3897705078125,801.1054077148438,-171.87527465820312,992.1890258789062,195.31280517578125
858.6797485351562,814.2652587890625,-171.87527465820312,996.0953369140624,195.31280517578125
861.9697265625,810.9752807617188,-171.87527465820312,996.0953369140624,199.21905517578125
861.9697265625,810.9752807617188,-171.87527465820312,992.1890258789062,195.31280517578125
861.9697265625,810.9752807617188,-164.06275939941406,996.0953369140624,199.21905517578125
870.194580078125,810.9752807617188,-167.96900939941406,992.1890258789062,191.40655517578125
866.9046630859375,792.8805541992188,-171.87527465820312,996.0953369140624,195.31280517578125
861.9697265625,789.590576171875,-171.87527465820312,996.0953369140624,195.31280517578125
861.9697265625,789.590576171875,-164.06275939941406,992.1890258789062,195.31280517578125
868.5496215820312,783.0106201171875,-164.06275939941406,996.0953369140624,191.40655517578125
847.1648559570312,771.4957885742188,-167.96900939941406,996.0953369140624,191.40655517578125
855.3897705078125,773.1407470703125,-167.96900939941406,1000.0015869140624,191.40655517578125
850.454833984375,792.8805541992188,-167.96900939941406,1000.0015869140624,191.40655517578125
852.0997924804688,799.46044921875,-167.96900939941406,992.1890258789062,195.31280517578125
866.9046630859375,810.9752807617188,-167.96900939941406,992.1890258789062,195.31280517578125
865.2596435546875,814.2652587890625,-167.96900939941406,996.0953369140624,195.31280517578125
870.194580078125,809.330322265625,-167.96900939941406,992.1890258789062,195.31280517578125
871.839599609375,794.5255126953125,-164.06275939941406,992.1890258789062,195.31280517578125
865.2596435546875,791.2355346679688,-167.96900939941406,992.1890258789062,195.31280517578125
863.6146850585938,794.5255126953125,-167.96900939941406,996.0953369140624,195.31280517578125
863.6146850585938,794.5255126953125,-175.78152465820312,996.0953369140624,191.40655517578125
858.6797485351562,797.8154907226562,-167.96900939941406,1003.9078369140624,195.31280517578125
848.8098754882812,810.9752807617188,-164.06275939941406,988.2827758789062,199.21905517578125
848.8098754882812,810.9752807617188,-171.87527465820312,992.1890258789062,195.31280517578125
845.5198974609375,802.7504272460938,-171.87527465820312,992.1890258789062,195.31280517578125
848.8098754882812,801.1054077148438,-171.87527465820312,996.0953369140624,199.21905517578125
848.8098754882812,809.330322265625,-171.87527465820312,992.1890258789062,195.31280517578125
848.8098754882812,809.330322265625,-171.87527465820312,996.0953369140624,203.1253204345703
857.0347290039062,806.0403442382812,-171.87527465820312,992.1890258789062,203.1253204345703
858.6797485351562,807.6853637695312,-171.87527465820312,992.1890258789062,203.1253204345703
861.9697265625,814.2652587890625,-171.87527465820312,996.0953369140624,203.1253204345703
855.3897705078125,819.2001953125,-171.87527465820312,988.2827758789062,199.21905517578125
858.6797485351562,824.1351318359375,-167.96900939941406,1003.9078369140624,199.21905517578125
853.7448120117188,820.84521484375,-164.06275939941406,988.2827758789062,199.21905517578125
847.1648559570312,822.4901733398438,-171.87527465820312,988.2827758789062,191.40655517578125
847.1648559570312,822.4901733398438,-167.96900939941406,988.2827758789062,191.40655517578125
860.32470703125,830.715087890625,-164.06275939941406,996.0953369140624,195.31280517578125
855.3897705078125,827.4251098632812,-167.96900939941406,996.0953369140624,195.31280517578125
855.3897705078125,827.4251098632812,-167.96900939941406,992.1890258789062,195.31280517578125
850.454833984375,829.070068359375,-171.87527465820312,1000.0015869140624,199.21905517578125
850.454833984375,829.070068359375,-167.96900939941406,992.1890258789062,195.31280517578125
848.8098754882812,830.715087890625,-167.96900939941406,992.1890258789062,195.31280517578125
852.0997924804688,825.7801513671875,-167.96900939941406,996.0953369140624,199.21905517578125
847.1648559570312,834.0050048828125,-164.06275939941406,996.0953369140624,195.31280517578125
852.0997924804688,832.3600463867188,-164.06275939941406,996.0953369140624,199.21905517578125
852.0997924804688,832.3600463867188,-175.78152465820312,996.0953369140624,191.40655517578125
848.8098754882812,835.6500244140625,-164.06275939941406,1000.0015869140624,199.21905517578125
848.8098754882812,835.6500244140625,-164.06275939941406,1003.9078369140624,195.31280517578125
847.1648559570312,830.715087890625,-164.06275939941406,1003.9078369140624,195.31280517578125
845.5198974609375,832.3600463867188,-164.06275939941406,988.2827758789062,195.31280517578125
848.8098754882812,834.0050048828125,-167.96900939941406,992.1890258789062,191.40655517578125
850.454833984375,834.0050048828125,-171.87527465820312,996.0953369140624,195.31280517578125
842.2299194335938,829.070068359375,-167.96900939941406,996.0953369140624,199.21905517578125
842.2299194335938,829.070068359375,-171.87527465820312,1000.0015869140624,195.31280517578125
857.0347290039062,837.2949829101562,-167.96900939941406,992.1890258789062,195.31280517578125
853.7448120117188,834.0050048828125,-167.96900939941406,992.1890258789062,199.21905517578125
853.7448120117188,834.0050048828125,-167.96900939941406,996.0953369140624,199.21905517578125
852.0997924804688,837.2949829101562,-171.87527465820312,996.0953369140624,195.31280517578125
853.7448120117188,827.4251098632812,-167.96900939941406,996.0953369140624,195.31280517578125
853.7448120117188,827.4251098632812,-167.96900939941406,992.1890258789062,195.31280517578125
855.3897705078125,835.6500244140625,-167.96900939941406,992.1890258789062,195.31280517578125
857.0347290039062,824.1351318359375,-164.06275939941406,992.1890258789062,199.21905517578125
861.9697265625,822.4901733398438,-167.96900939941406,992.1890258789062,195.31280517578125
863.6146850585938,825.7801513671875,-171.87527465820312,996.0953369140624,199.21905517578125
861.9697265625,825.7801513671875,-171.87527465820312,996.0953369140624,199.21905517578125
861.9697265625,825.7801513671875,-167.96900939941406,996.0953369140624,199.21905517578125
865.2596435546875,832.3600463867188,-167.96900939941406,996.0953369140624,199.21905517578125
865.2596435546875,832.3600463867188,-167.96900939941406,992.1890258789062,195.31280517578125
863.6146850585938,830.715087890625,-171.87527465820312,992.1890258789062,195.31280517578125
858.6797485351562,829.070068359375,-167.96900939941406,996.0953369140624,195.31280517578125
852.0997924804688,817.5552368164062,-164.06275939941406,992.1890258789062,199.21905517578125
853.7448120117188,829.070068359375,-167.96900939941406,1000.0015869140624,195.31280517578125
853.7448120117188,829.070068359375,-167.96900939941406,992.1890258789062,195.31280517578125
848.8098754882812,832.3600463867188,-167.96900939941406,992.1890258789062,195.31280517578125
853.7448120117188,817.5552368164062,-167.96900939941406,1003.9078369140624,199.21905517578125
853.7448120117188,817.5552368164062,-164.06275939941406,992.1890258789062,199.21905517578125
843.8749389648438,829.070068359375,-164.06275939941406,992.1890258789062,199.21905517578125
847.1648559570312,834.0050048828125,-171.87527465820312,996.0953369140624,199.21905517578125
853.7448120117188,829.070068359375,-167.96900939941406,996.0953369140624,195.31280517578125
853.7448120117188,829.070068359375,-164.06275939941406,992.1890258789062,195.31280517578125
855.3897705078125,837.2949829101562,-164.06275939941406,992.1890258789062,199.21905517578125
855.3897705078125,837.2949829101562,-167.96900939941406,996.0953369140624,199.21905517578125
853.7448120117188,840.5849609375,-164.06275939941406,996.0953369140624,195.31280517578125
853.7448120117188,843.8749389648438,-164.06275939941406,992.1890258789062,199.21905517578125
853.7448120117188,843.8749389648438,-167.96900939941406,996.0953369140624,199.21905517578125
857.0347290039062,845.5198974609375,-164.06275939941406,996.0953369140624,199.21905517578125
853.7448120117188,850.454833984375,-164.06275939941406,1000.0015869140624,203.1253204345703
853.7448120117188,850.454833984375,-160.156494140625,996.0953369140624,199.21905517578125
853.7448120117188,847.1648559570312,-160.156494140625,996.0953369140624,199.21905517578125
848.8098754882812,845.5198974609375,-164.06275939941406,992.1890258789062,199.21905517578125
848.8098754882812,845.5198974609375,-160.156494140625,992.1890258789062,195.31280517578125
848.8098754882812,837.2949829101562,-167.96900939941406,992.1890258789062,195.31280517578125
850.454833984375,838.9400024414062,-164.06275939941406,996.0953369140624,199.21905517578125
850.454833984375,838.9400024414062,-164.06275939941406,1000.0015869140624,199.21905517578125
848.8098754882812,847.1648559570312,-167.96900939941406,996.0953369140624,199.21905517578125
848.8098754882812,842.2299194335938,-164.06275939941406,996.0953369140624,199.21905517578125
848.8098754882812,842.2299194335938,-164.06275939941406,996.0953369140624,195.31280517578125
848.8098754882812,840.5849609375,-164.06275939941406,996.0953369140624,195.31280517578125
858.6797485351562,842.2299194335938,-160.156494140625,996.0953369140624,199.21905517578125
858.6797485351562,842.2299194335938,-160.156494140625,996.0953369140624,195.31280517578125
863.6146850585938,842.2299194335938,-167.96900939941406,996.0953369140624,191.40655517578125
858.6797485351562,850.454833984375,-160.156494140625,992.1890258789062,199.21905517578125
857.0347290039062,853.7448120117188,-156.250244140625,992.1890258789062,195.31280517578125
857.0347290039062,853.7448120117188,-160.156494140625,988.2827758789062,195.31280517578125
857.0347290039062,853.7448120117188,-164.06275939941406,992.1890258789062,195.31280517578125
855.3897705078125,852.0997924804688,-164.06275939941406,996.0953369140624,195.31280517578125
855.3897705078125,852.0997924804688,-164.06275939941406,1000.0015869140624,195.31280517578125
857.0347290039062,860.32470703125,-164.06275939941406,1000.0015869140624,195.31280517578125
858.6797485351562,861.9697265625,-167.96900939941406,992.1890258789062,195.31280517578125
858.6797485351562,858.6797485351562,-164.06275939941406,992.1890258789062,199.21905517578125
858.6797485351562,858.6797485351562,-164.06275939941406,996.0953369140624,203.1253204345703
847.1648559570312,861.9697265625,-164.06275939941406,996.0953369140624,203.1253204345703
855.3897705078125,852.0997924804688,-164.06275939941406,1000.0015869140624,203.1253204345703
850.454833984375,858.6797485351562,-167.96900939941406,992.1890258789062,203.1253204345703
848.8098754882812,853.7448120117188,-160.156494140625,996.0953369140624,199.21905517578125
848.8098754882812,853.7448120117188,-156.250244140625,992.1890258789062,199.21905517578125
852.0997924804688,853.7448120117188,-156.250244140625,992.1890258789062,195.31280517578125
847.1648559570312,845.5198974609375,-164.06275939941406,996.0953369140624,195.31280517578125
848.8098754882812,847.1648559570312,-164.06275939941406,996.0953369140624,195.31280517578125
840.5849609375,838.9400024414062,-160.156494140625,996.0953369140624,199.21905517578125
840.5849609375,838.9400024414062,-160.156494140625,992.1890258789062,195.31280517578125
847.1648559570312,838.9400024414062,-164.06275939941406,996.0953369140624,199.21905517578125
853.7448120117188,842.2299194335938,-164.06275939941406,996.0953369140624,195.31280517578125
853.7448120117188,842.2299194335938,-164.06275939941406,992.1890258789062,195.31280517578125
855.3897705078125,840.5849609375,-164.06275939941406,992.1890258789062,195.31280517578125
835.6500244140625,858.6797485351562,-156.250244140625,996.0953369140624,195.31280517578125
838.9400024414062,855.3897705078125,-156.250244140625,996.0953369140624,199.21905517578125
850.454833984375,852.0997924804688,-156.250244140625,992.1890258789062,199.21905517578125
852.0997924804688,845.5198974609375,-156.250244140625,992.1890258789062,195.31280517578125
852.0997924804688,845.5198974609375,-160.156494140625,996.0953369140624,195.31280517578125
850.454833984375,842.2299194335938,-160.156494140625,992.1890258789062,199.21905517578125
852.0997924804688,842.2299194335938,-160.156494140625,996.0953369140624,199.21905517578125
852.0997924804688,848.8098754882812,-160.156494140625,996.0953369140624,199.21905517578125
850.454833984375,847.1648559570312,-164.06275939941406,992.1890258789062,195.31280517578125
850.454833984375,847.1648559570312,-160.156494140625,992.1890258789062,195.31280517578125
845.5198974609375,848.8098754882812,-160.156494140625,992.1890258789062,195.31280517578125
845.5198974609375,848.8098754882812,-160.156494140625,996.0953369140624,199.21905517578125
845.5198974609375,848.8098754882812,-164.06275939941406,996.0953369140624,195.31280517578125
868.5496215820312,830.715087890625,-156.250244140625,996.0953369140624,199.21905517578125
870.194580078125,829.070068359375,-156.250244140625,1000.0015869140624,199.21905517578125
871.839599609375,827.4251098632812,-160.156494140625,996.0953369140624,195.31280517578125
863.6146850585938,830.715087890625,-152.343994140625,992.1890258789062,199.21905517578125
863.6146850585938,830.715087890625,-152.343994140625,1003.9078369140624,199.21905517578125
863.6146850585938,834.0050048828125,-156.250244140625,1000.0015869140624,199.21905517578125
857.0347290039062,825.7801513671875,-156.250244140625,992.1890258789062,199.21905517578125
857.0347290039062,825.7801513671875,-160.156494140625,992.1890258789062,199.21905517578125
865.2596435546875,825.7801513671875,-164.06275939941406,992.1890258789062,195.31280517578125
855.3897705078125,832.3600463867188,-160.156494140625,1000.0015869140624,199.21905517578125
857.0347290039062,830.715087890625,-164.06275939941406,996.0953369140624,199.21905517578125
857.0347290039062,830.715087890625,-164.06275939941406,1000.0015869140624,195.31280517578125
857.0347290039062,830.715087890625,-160.156494140625,996.0953369140624,199.21905517578125
852.0997924804688,834.0050048828125,-164.06275939941406,996.0953369140624,195.31280517578125
848.8098754882812,829.070068359375,-160.156494140625,996.0953369140624,195.31280517578125
850.454833984375,832.3600463867188,-156.250244140625,992.1890258789062,199.21905517578125
850.454833984375,832.3600463867188,-156.250244140625,996.0953369140624,203.1253204345703
850.454833984375,832.3600463867188,-160.156494140625,1000.0015869140624,199.21905517578125
848.8098754882812,837.2949829101562,-160.156494140625,1000.0015869140624,199.21905517578125
847.1648559570312,838.9400024414062,-160.156494140625,992.1890258789062,199.21905517578125
847.1648559570312,838.9400024414062,-156.250244140625,1000.0015869140624,203.1253204345703
847.1648559570312,834.0050048828125,-156.250244140625,992.1890258789062,203.1253204345703
847.1648559570312,834.0050048828125,-152.343994140625,992.1890258789062,203.1253204345703
843.8749389648438,832.3600463867188,-156.250244140625,992.1890258789062,199.21905517578125
838.9400024414062,835.6500244140625,-164.06275939941406,992.1890258789062,199.21905517578125
845.5198974609375,842.2299194335938,-164.06275939941406,996.0953369140624,199.21905517578125
845.5198974609375,842.2299194335938,-160.156494140625,996.0953369140624,199.21905517578125
845.5198974609375,842.2299194335938,-160.156494140625,1000.0015869140624,199.21905517578125
873.4845581054688,855.3897705078125,-164.06275939941406,1000.0015869140624,199.21905517578125
873.4845581054688,855.3897705078125,-164.06275939941406,996.0953369140624,199.21905517578125
873.4845581054688,855.3897705078125,-160.156494140625,996.0953369140624,199.21905517578125
870.194580078125,857.0347290039062,-160.156494140625,996.0953369140624,199.21905517578125
870.194580078125,847.1648559570312,-156.250244140625,992.1890258789062,199.21905517578125
866.9046630859375,848.8098754882812,-164.06275939941406,996.0953369140624,199.21905517578125
866.9046630859375,848.8098754882812,-167.96900939941406,992.1890258789062,195.31280517578125
863.6146850585938,858.6797485351562,-156.250244140625,992.1890258789062,203.1253204345703
857.0347290039062,840.5849609375,-164.06275939941406,992.1890258789062,195.31280517578125
857.0347290039062,843.8749389648438,-156.250244140625,996.0953369140624,199.21905517578125
878.4194946289062,829.070068359375,-156.250244140625,996.0953369140624,199.21905517578125
863.6146850585938,835.6500244140625,-160.156494140625,992.1890258789062,195.31280517578125
865.2596435546875,843.8749389648438,-164.06275939941406,996.0953369140624,195.31280517578125
858.6797485351562,834.0050048828125,-160.156494140625,996.0953369140624,199.21905517578125
853.7448120117188,843.8749389648438,-160.156494140625,996.0953369140624,203.1253204345703
847.1648559570312,843.8749389648438,-156.250244140625,992.1890258789062,203.1253204345703
847.1648559570312,843.8749389648438,-156.250244140625,1000.0015869140624,203.1253204345703
850.454833984375,855.3897705078125,-160.156494140625,996.0953369140624,199.21905517578125
852.0997924804688,848.8098754882812,-156.250244140625,992.1890258789062,199.21905517578125
848.8098754882812,840.5849609375,-152.343994140625,1003.9078369140624,199.21905517578125
853.7448120117188,852.0997924804688,-152.343994140625,996.0953369140624,195.31280517578125
853.7448120117188,852.0997924804688,-148.43772888183594,992.1890258789062,195.31280517578125
850.454833984375,850.454833984375,-152.343994140625,992.1890258789062,191.40655517578125
855.3897705078125,853.7448120117188,-160.156494140625,1000.0015869140624,195.31280517578125
840.5849609375,848.8098754882812,-160.156494140625,992.1890258789062,191.40655517578125
850.454833984375,852.0997924804688,-160.156494140625,1000.0015869140624,195.31280517578125
838.9400024414062,865.2596435546875,-160.156494140625,992.1890258789062,191.40655517578125
838.9400024414062,865.2596435546875,-156.250244140625,992.1890258789062,191.40655517578125
847.1648559570312,858.6797485351562,-156.250244140625,992.1890258789062,195.31280517578125
847.1648559570312,853.7448120117188,-152.343994140625,1000.0015869140624,199.21905517578125
847.1648559570312,853.7448120117188,-164.06275939941406,1000.0015869140624,195.31280517578125
845.5198974609375,848.8098754882812,-156.250244140625,992.1890258789062,203.1253204345703
850.454833984375,850.454833984375,-152.343994140625,992.1890258789062,199.21905517578125
850.454833984375,850.454833984375,-152.343994140625,992.1890258789062,195.31280517578125
850.454833984375,850.454833984375,-156.250244140625,992.1890258789062,195.31280517578125
845.5198974609375,850.454833984375,-156.250244140625,992.1890258789062,195.31280517578125
850.454833984375,843.8749389648438,-156.250244140625,1000.0015869140624,199.21905517578125
850.454833984375,843.8749389648438,-156.250244140625,1000.0015869140624,195.31280517578125
853.7448120117188,847.1648559570312,-160.156494140625,1000.0015869140624,195.31280517578125
853.7448120117188,847.1648559570312,-160.156494140625,996.0953369140624,191.40655517578125
853.7448120117188,847.1648559570312,-156.250244140625,996.0953369140624,191.40655517578125
852.0997924804688,840.5849609375,-156.250244140625,1000.0015869140624,195.31280517578125
850.454833984375,840.5849609375,-156.250244140625,1000.0015869140624,195.31280517578125
855.3897705078125,842.2299194335938,-152.343994140625,1000.0015869140624,191.40655517578125
855.3897705078125,852.0997924804688,-148.43772888183594,992.1890258789062,191.40655517578125
855.3897705078125,852.0997924804688,-152.343994140625,996.0953369140624,191.40655517578125
848.8098754882812,861.9697265625,-152.343994140625,996.0953369140624,191.40655517578125
845.5198974609375,868.5496215820312,-152.343994140625,1000.0015869140624,195.31280517578125
845.5198974609375,868.5496215820312,-148.43772888183594,996.0953369140624,195.31280517578125
845.5198974609375,868.5496215820312,-148.43772888183594,992.1890258789062,195.31280517578125
845.5198974609375,861.9697265625,-152.343994140625,992.1890258789062,195.31280517578125
847.1648559570312,861.9697265625,-156.250244140625,996.0953369140624,199.21905517578125
847.1648559570312,861.9697265625,-160.156494140625,1000.0015869140624,199.21905517578125
850.454833984375,861.9697265625,-160.156494140625,1000.0015869140624,199.21905517578125
853.7448120117188,852.0997924804688,-156.250244140625,1000.0015869140624,195.31280517578125
848.8098754882812,857.0347290039062,-152.343994140625,996.0953369140624,191.40655517578125
848.8098754882812,857.0347290039062,-156.250244140625,1000.0015869140624,191.40655517578125
853.7448120117188,842.2299194335938,-152.343994140625,996.0953369140624,195.31280517578125
855.3897705078125,829.070068359375,-152.343994140625,992.1890258789062,195.31280517578125
855.3897705078125,829.070068359375,-148.43772888183594,1000.0015869140624,195.31280517578125
852.0997924804688,834.0050048828125,-156.250244140625,996.0953369140624,191.40655517578125
852.0997924804688,834.0050048828125,-152.343994140625,996.0953369140624,199.21905517578125
852.0997924804688,852.0997924804688,-148.43772888183594,1003.9078369140624,199.21905517578125
857.0347290039062,835.6500244140625,-156.250244140625,996.0953369140624,195.31280517578125
880.064453125,825.7801513671875,-156.250244140625,1000.0015869140624,195.31280517578125
857.0347290039062,830.715087890625,-152.343994140625,1000.0015869140624,195.31280517578125
850.454833984375,834.0050048828125,-152.343994140625,996.0953369140624,191.40655517578125
850.454833984375,834.0050048828125,-152.343994140625,996.0953369140624,195.31280517578125
852.0997924804688,835.6500244140625,-152.343994140625,996.0953369140624,195.31280517578125
850.454833984375,840.5849609375,-152.343994140625,996.0953369140624,191.40655517578125
850.454833984375,840.5849609375,-160.156494140625,1000.0015869140624,191.40655517578125
850.454833984375,840.5849609375,-156.250244140625,996.0953369140624,191.40655517578125
855.3897705078125,837.2949829101562,-156.250244140625,996.0953369140624,191.40655517578125
852.0997924804688,837.2949829101562,-152.343994140625,1000.0015869140624,195.31280517578125
852.0997924804688,830.715087890625,-152.343994140625,996.0953369140624,195.31280517578125
848.8098754882812,837.2949829101562,-152.343994140625,996.0953369140624,195.31280517578125
848.8098754882812,837.2949829101562,-152.343994140625,1000.0015869140624,199.21905517578125
848.8098754882812,837.2949829101562,-160.156494140625,996.0953369140624,191.40655517578125
850.454833984375,850.454833984375,-160.156494140625,996.0953369140624,191.40655517578125
850.454833984375,852.0997924804688,-148.43772888183594,1007.8140869140624,199.21905517578125
850.454833984375,852.0997924804688,-148.43772888183594,1000.0015869140624,195.31280517578125
852.0997924804688,832.3600463867188,-148.43772888183594,992.1890258789062,195.31280517578125
853.7448120117188,838.9400024414062,-156.250244140625,996.0953369140624,191.40655517578125
853.7448120117188,838.9400024414062,-152.343994140625,996.0953369140624,195.31280517578125
853.7448120117188,838.9400024414062,-156.250244140625,1003.9078369140624,199.21905517578125
853.7448120117188,838.9400024414062,-156.250244140625,996.0953369140624,195.31280517578125
852.0997924804688,840.5849609375,-156.250244140625,996.0953369140624,195.31280517578125
853.7448120117188,847.1648559570312,-148.43772888183594,996.0953369140624,191.40655517578125
850.454833984375,845.5198974609375,-152.343994140625,1000.0015869140624,191.40655517578125
850.454833984375,847.1648559570312,-152.343994140625,996.0953369140624,195.31280517578125
850.454833984375,847.1648559570312,-148.43772888183594,996.0953369140624,199.21905517578125
848.8098754882812,845.5198974609375,-148.43772888183594,1007.8140869140624,199.21905517578125
848.8098754882812,847.1648559570312,-152.343994140625,1000.0015869140624,195.31280517578125
848.8098754882812,847.1648559570312,-148.43772888183594,992.1890258789062,199.21905517578125
853.7448120117188,837.2949829101562,-156.250244140625,1003.9078369140624,191.40655517578125
853.7448120117188,837.2949829101562,-148.43772888183594,996.0953369140624,199.21905517578125
848.8098754882812,842.2299194335938,-144.53147888183594,1000.0015869140624,199.21905517578125
850.454833984375,837.2949829101562,-152.343994140625,996.0953369140624,195.31280517578125
850.454833984375,837.2949829101562,-152.343994140625,992.1890258789062,195.31280517578125
840.5849609375,840.5849609375,-152.343994140625,992.1890258789062,195.31280517578125
843.8749389648438,848.8098754882812,-156.250244140625,1003.9078369140624,195.31280517578125
860.32470703125,837.2949829101562,-144.53147888183594,1000.0015869140624,195.31280517578125
860.32470703125,837.2949829101562,-148.43772888183594,992.1890258789062,191.40655517578125
858.6797485351562,832.3600463867188,-148.43772888183594,992.1890258789062,191.40655517578125
858.6797485351562,832.3600463867188,-152.343994140625,996.0953369140624,191.40655517578125
858.6797485351562,832.3600463867188,-156.250244140625,1000.0015869140624,191.40655517578125
858.6797485351562,832.3600463867188,-152.343994140625,1000.0015869140624,195.31280517578125
855.3897705078125,832.3600463867188,-152.343994140625,1000.0015869140624,195.31280517578125
853.7448120117188,830.715087890625,-144.53147888183594,996.0953369140624,191.40655517578125
853.7448120117188,830.715087890625,-148.43772888183594,996.0953369140624,195.31280517578125
837.2949829101562,834.0050048828125,-148.43772888183594,996.0953369140624,191.40655517578125
845.5198974609375,840.5849609375,-152.343994140625,1000.0015869140624,195.31280517578125
840.5849609375,842.2299194335938,-148.43772888183594,1003.9078369140624,199.21905517578125
840.5849609375,842.2299194335938,-152.343994140625,1003.9078369140624,199.21905517578125
848.8098754882812,845.5198974609375,-148.43772888183594,992.1890258789062,199.21905517578125
848.8098754882812,827.4251098632812,-152.343994140625,992.1890258789062,195.31280517578125
848.8098754882812,827.4251098632812,-152.343994140625,1000.0015869140624,195.31280517578125
848.8098754882812,827.4251098632812,-148.43772888183594,996.0953369140624,199.21905517578125
847.1648559570312,842.2299194335938,-148.43772888183594,1003.9078369140624,195.31280517578125
847.1648559570312,842.2299194335938,-148.43772888183594,1000.0015869140624,191.40655517578125
853.7448120117188,838.9400024414062,-148.43772888183594,992.1890258789062,191.40655517578125
853.7448120117188,838.9400024414062,-148.43772888183594,996.0953369140624,195.31280517578125
857.0347290039062,843.8749389648438,-148.43772888183594,996.0953369140624,195.31280517578125
857.0347290039062,843.8749389648438,-148.43772888183594,1000.0015869140624,199.21905517578125
857.0347290039062,843.8749389648438,-152.343994140625,1000.0015869140624,199.21905517578125
847.1648559570312,824.1351318359375,-152.343994140625,1000.0015869140624,199.21905517578125
847.1648559570312,835.6500244140625,-148.43772888183594,996.0953369140624,199.21905517578125
847.1648559570312,835.6500244140625,-160.156494140625,1000.0015869140624,191.40655517578125
847.1648559570312,835.6500244140625,-148.43772888183594,996.0953369140624,203.1253204345703
838.9400024414062,842.2299194335938,-144.53147888183594,1007.8140869140624,199.21905517578125
838.9400024414062,842.2299194335938,-148.43772888183594,1003.9078369140624,191.40655517578125
837.2949829101562,842.2299194335938,-140.62521362304688,992.1890258789062,191.40655517578125
855.3897705078125,832.3600463867188,-144.53147888183594,992.1890258789062,191.40655517578125
855.3897705078125,832.3600463867188,-148.43772888183594,992.1890258789062,191.40655517578125
855.3897705078125,832.3600463867188,-144.53147888183594,996.0953369140624,195.31280517578125
852.0997924804688,847.1648559570312,-144.53147888183594,996.0953369140624,195.31280517578125
852.0997924804688,824.1351318359375,-148.43772888183594,1000.0015869140624,199.21905517578125
852.0997924804688,824.1351318359375,-152.343994140625,996.0953369140624,195.31280517578125
840.5849609375,809.330322265625,-152.343994140625,996.0953369140624,195.31280517578125
845.5198974609375,807.6853637695312,-148.43772888183594,996.0953369140624,203.1253204345703
853.7448120117188,806.0403442382812,-148.43772888183594,996.0953369140624,203.1253204345703
842.2299194335938,825.7801513671875,-148.43772888183594,1000.0015869140624,199.21905517578125
840.5849609375,825.7801513671875,-148.43772888183594,1000.0015869140624,199.21905517578125
840.5849609375,825.7801513671875,-144.53147888183594,996.0953369140624,199.21905517578125
855.3897705078125,827.4251098632812,-140.62521362304688,1003.9078369140624,195.31280517578125
855.3897705078125,827.4251098632812,-152.343994140625,1000.0015869140624,187.5002899169922
855.3897705078125,835.6500244140625,-152.343994140625,1000.0015869140624,187.5002899169922
852.0997924804688,832.3600463867188,-144.53147888183594,1003.9078369140624,191.40655517578125
847.1648559570312,840.5849609375,-144.53147888183594,996.0953369140624,191.40655517578125
845.5198974609375,835.6500244140625,-144.53147888183594,996.0953369140624,191.40655517578125
843.8749389648438,843.8749389648438,-144.53147888183594,996.0953369140624,191.40655517578125
843.8749389648438,843.8749389648438,-148.43772888183594,1000.0015869140624,191.40655517578125
843.8749389648438,843.8749389648438,-148.43772888183594,1000.0015869140624,195.31280517578125
848.8098754882812,837.2949829101562,-148.43772888183594,1000.0015869140624,195.31280517578125
842.2299194335938,848.8098754882812,-144.53147888183594,1003.9078369140624,195.31280517578125
842.2299194335938,848.8098754882812,-144.53147888183594,1000.0015869140624,195.31280517578125
845.5198974609375,843.8749389648438,-148.43772888183594,1000.0015869140624,191.40655517578125
852.0997924804688,852.0997924804688,-148.43772888183594,1000.0015869140624,191.40655517578125
852.0997924804688,852.0997924804688,-144.53147888183594,1000.0015869140624,195.31280517578125
852.0997924804688,852.0997924804688,-140.62521362304688,1000.0015869140624,191.40655517578125
852.0997924804688,850.454833984375,-140.62521362304688,1000.0015869140624,191.40655517578125
842.2299194335938,870.194580078125,-140.62521362304688,996.0953369140624,195.31280517578125
850.454833984375,858.6797485351562,-148.43772888183594,996.0953369140624,187.5002899169922
850.454833984375,858.6797485351562,-144.53147888183594,992.1890258789062,191.40655517578125
850.454833984375,858.6797485351562,-140.62521362304688,1011.7203369140624,191.40655517578125
847.1648559570312,860.32470703125,-140.62521362304688,996.0953369140624,191.40655517578125
843.8749389648438,843.8749389648438,-144.53147888183594,1000.0015869140624,191.40655517578125
842.2299194335938,855.3897705078125,-144.53147888183594,1000.0015869140624,195.31280517578125
842.2299194335938,855.3897705078125,-144.53147888183594,1003.9078369140624,195.31280517578125
845.5198974609375,855.3897705078125,-148.43772888183594,1000.0015869140624,191.40655517578125
842.2299194335938,852.0997924804688,-144.53147888183594,996.0953369140624,195.31280517578125
842.2299194335938,852.0997924804688,-148.43772888183594,1000.0015869140624,191.40655517578125
848.8098754882812,850.454833984375,-148.43772888183594,1000.0015869140624,195.31280517578125
848.8098754882812,850.454833984375,-140.62521362304688,1000.0015869140624,191.40655517578125
848.8098754882812,850.454833984375,-144.53147888183594,996.0953369140624,195.31280517578125
855.3897705078125,857.0347290039062,-144.53147888183594,992.1890258789062,191.40655517578125
848.8098754882812,842.2299194335938,-136.71896362304688,1003.9078369140624,195.31280517578125
847.1648559570312,852.0997924804688,-140.62521362304688,996.0953369140624,195.31280517578125
847.1648559570312,852.0997924804688,-140.62521362304688,996.0953369140624,191.40655517578125
842.2299194335938,847.1648559570312,-148.43772888183594,1000.0015869140624,191.40655517578125
848.8098754882812,845.5198974609375,-144.53147888183594,1000.0015869140624,195.31280517578125
848.8098754882812,845.5198974609375,-148.43772888183594,1003.9078369140624,191.40655517578125
855.3897705078125,834.0050048828125,-144.53147888183594,996.0953369140624,191.40655517578125
853.7448120117188,850.454833984375,-144.53147888183594,1000.0015869140624,191.40655517578125
852.0997924804688,843.8749389648438,-144.53147888183594,1000.0015869140624,195.31280517578125
853.7448120117188,843.8749389648438,-144.53147888183594,996.0953369140624,195.31280517578125
848.8098754882812,842.2299194335938,-152.343994140625,996.0953369140624,187.5002899169922
848.8098754882812,842.2299194335938,-140.62521362304688,996.0953369140624,199.21905517578125
852.0997924804688,847.1648559570312,-140.62521362304688,996.0953369140624,199.21905517578125
850.454833984375,845.5198974609375,-144.53147888183594,1003.9078369140624,195.31280517578125
850.454833984375,845.5198974609375,-144.53147888183594,996.0953369140624,191.40655517578125
852.0997924804688,840.5849609375,-140.62521362304688,996.0953369140624,195.31280517578125
852.0997924804688,840.5849609375,-144.53147888183594,996.0953369140624,191.40655517578125
855.3897705078125,843.8749389648438,-140.62521362304688,996.0953369140624,191.40655517578125
855.3897705078125,843.8749389648438,-140.62521362304688,992.1890258789062,195.31280517578125
855.3897705078125,843.8749389648438,-144.53147888183594,992.1890258789062,191.40655517578125
852.0997924804688,827.4251098632812,-144.53147888183594,992.1890258789062,191.40655517578125
850.454833984375,832.3600463867188,-144.53147888183594,992.1890258789062,191.40655517578125
850.454833984375,832.3600463867188,-140.62521362304688,1003.9078369140624,195.31280517578125
850.454833984375,827.4251098632812,-140.62521362304688,1003.9078369140624,195.31280517578125
845.5198974609375,824.1351318359375,-140.62521362304688,1000.0015869140624,195.31280517578125
845.5198974609375,824.1351318359375,-144.53147888183594,996.0953369140624,191.40655517578125
845.5198974609375,824.1351318359375,-140.62521362304688,992.1890258789062,195.31280517578125
843.8749389648438,822.4901733398438,-140.62521362304688,992.1890258789062,195.31280517578125
848.8098754882812,834.0050048828125,-144.53147888183594,1000.0015869140624,191.40655517578125
853.7448120117188,835.6500244140625,-144.53147888183594,1000.0015869140624,191.40655517578125
852.0997924804688,835.6500244140625,-136.71896362304688,996.0953369140624,195.31280517578125
852.0997924804688,835.6500244140625,-132.81271362304688,996.0953369140624,195.31280517578125
852.0997924804688,835.6500244140625,-136.71896362304688,1000.0015869140624,195.31280517578125
858.6797485351562,842.2299194335938,-144.53147888183594,1000.0015869140624,195.31280517578125
858.6797485351562,838.9400024414062,-144.53147888183594,1000.0015869140624,195.31280517578125
853.7448120117188,845.5198974609375,-140.62521362304688,996.0953369140624,191.40655517578125
853.7448120117188,852.0997924804688,-140.62521362304688,1000.0015869140624,195.31280517578125
855.3897705078125,850.454833984375,-140.62521362304688,1003.9078369140624,195.31280517578125
855.3897705078125,850.454833984375,-136.71896362304688,1000.0015869140624,195.31280517578125
847.1648559570312,845.5198974609375,-140.62521362304688,992.1890258789062,195.31280517578125
847.1648559570312,840.5849609375,-140.62521362304688,1000.0015869140624,195.31280517578125
847.1648559570312,840.5849609375,-148.43772888183594,996.0953369140624,195.31280517578125
850.454833984375,838.9400024414062,-132.81271362304688,1003.9078369140624,203.1253204345703
853.7448120117188,842.2299194335938,-140.62521362304688,1000.0015869140624,199.21905517578125
850.454833984375,835.6500244140625,-132.81271362304688,1000.0015869140624,195.31280517578125
845.5198974609375,845.5198974609375,-132.81271362304688,996.0953369140624,191.40655517578125
832.3600463867188,837.2949829101562,-140.62521362304688,1000.0015869140624,191.40655517578125
832.3600463867188,837.2949829101562,-140.62521362304688,1003.9078369140624,191.40655517578125
834.0050048828125,829.070068359375,-140.62521362304688,1000.0015869140624,187.5002899169922
847.1648559570312,842.2299194335938,-136.71896362304688,992.1890258789062,191.40655517578125
847.1648559570312,842.2299194335938,-140.62521362304688,996.0953369140624,191.40655517578125
845.5198974609375,843.8749389648438,-148.43772888183594,1003.9078369140624,191.40655517578125
845.5198974609375,838.9400024414062,-136.71896362304688,1000.0015869140624,195.31280517578125
845.5198974609375,838.9400024414062,-136.71896362304688,1003.9078369140624,195.31280517578125
853.7448120117188,848.8098754882812,-136.71896362304688,1003.9078369140624,195.31280517578125
843.8749389648438,827.4251098632812,-140.62521362304688,1000.0015869140624,191.40655517578125
845.5198974609375,819.2001953125,-132.81271362304688,1003.9078369140624,199.21905517578125
847.1648559570312,832.3600463867188,-132.81271362304688,1000.0015869140624,195.31280517578125
847.1648559570312,834.0050048828125,-128.90644836425778,1000.0015869140624,199.21905517578125
843.8749389648438,838.9400024414062,-128.90644836425778,1000.0015869140624,199.21905517578125
845.5198974609375,825.7801513671875,-140.62521362304688,996.0953369140624,195.31280517578125
850.454833984375,829.070068359375,-140.62521362304688,1003.9078369140624,195.31280517578125
850.454833984375,829.070068359375,-136.71896362304688,1000.0015869140624,195.31280517578125
850.454833984375,829.070068359375,-136.71896362304688,1003.9078369140624,195.31280517578125
845.5198974609375,827.4251098632812,-136.71896362304688,1003.9078369140624,195.31280517578125
840.5849609375,842.2299194335938,-140.62521362304688,996.0953369140624,191.40655517578125
840.5849609375,842.2299194335938,-136.71896362304688,992.1890258789062,191.40655517578125
848.8098754882812,840.5849609375,-140.62521362304688,996.0953369140624,191.40655517578125
852.0997924804688,861.9697265625,-140.62521362304688,1000.0015869140624,195.31280517578125
855.3897705078125,852.0997924804688,-132.81271362304688,1000.0015869140624,195.31280517578125
855.3897705078125,852.0997924804688,-136.71896362304688,1000.0015869140624,195.31280517578125
848.8098754882812,858.6797485351562,-136.71896362304688,1000.0015869140624,191.40655517578125
848.8098754882812,855.3897705078125,-132.81271362304688,1007.8140869140624,195.31280517578125
848.8098754882812,855.3897705078125,-132.81271362304688,996.0953369140624,199.21905517578125
850.454833984375,847.1648559570312,-132.81271362304688,996.0953369140624,199.21905517578125
843.8749389648438,845.5198974609375,-140.62521362304688,1000.0015869140624,191.40655517578125
843.8749389648438,845.5198974609375,-140.62521362304688,1000.0015869140624,195.31280517578125
843.8749389648438,842.2299194335938,-140.62521362304688,1000.0015869140624,195.31280517578125
843.8749389648438,842.2299194335938,-140.62521362304688,996.0953369140624,195.31280517578125
843.8749389648438,842.2299194335938,-136.71896362304688,1003.9078369140624,195.31280517578125
845.5198974609375,838.9400024414062,-140.62521362304688,1003.9078369140624,195.31280517578125
845.5198974609375,838.9400024414062,-136.71896362304688,996.0953369140624,191.40655517578125
848.8098754882812,822.4901733398438,-136.71896362304688,996.0953369140624,191.40655517578125
848.8098754882812,834.0050048828125,-136.71896362304688,996.0953369140624,191.40655517578125
832.3600463867188,852.0997924804688,-136.71896362304688,996.0953369140624,191.40655517578125
832.3600463867188,852.0997924804688,-132.81271362304688,996.0953369140624,195.31280517578125
832.3600463867188,852.0997924804688,-132.81271362304688,1000.0015869140624,195.31280517578125
838.9400024414062,842.2299194335938,-132.81271362304688,1000.0015869140624,195.31280517578125
838.9400024414062,842.2299194335938,-132.81271362304688,1003.9078369140624,199.21905517578125
838.9400024414062,842.2299194335938,-140.62521362304688,1000.0015869140624,191.40655517578125
845.5198974609375,843.8749389648438,-132.81271362304688,996.0953369140624,199.21905517578125
845.5198974609375,843.8749389648438,-132.81271362304688,1007.8140869140624,195.31280517578125
852.0997924804688,850.454833984375,-136.71896362304688,996.0953369140624,195.31280517578125
850.454833984375,847.1648559570312,-140.62521362304688,996.0953369140624,195.31280517578125
848.8098754882812,840.5849609375,-136.71896362304688,996.0953369140624,195.31280517578125
847.1648559570312,847.1648559570312,-136.71896362304688,996.0953369140624,195.31280517578125
852.0997924804688,845.5198974609375,-136.71896362304688,1000.0015869140624,195.31280517578125
852.0997924804688,845.5198974609375,-140.62521362304688,1000.0015869140624,195.31280517578125
852.0997924804688,822.4901733398438,-140.62521362304688,1000.0015869140624,195.31280517578125
857.0347290039062,845.5198974609375,-136.71896362304688,996.0953369140624,195.31280517578125
855.3897705078125,878.4194946289062,-136.71896362304688,996.0953369140624,195.31280517578125
871.839599609375,889.9343872070312,-136.71896362304688,1000.0015869140624,195.31280517578125
871.839599609375,889.9343872070312,-132.81271362304688,1000.0015869140624,199.21905517578125
871.839599609375,889.9343872070312,-136.71896362304688,1000.0015869140624,199.21905517578125
852.0997924804688,817.5552368164062,-128.90644836425778,1003.9078369140624,199.21905517578125
852.0997924804688,817.5552368164062,-132.81271362304688,1000.0015869140624,195.31280517578125
832.3600463867188,797.8154907226562,-132.81271362304688,1000.0015869140624,195.31280517578125
834.0050048828125,801.1054077148438,-136.71896362304688,996.0953369140624,191.40655517578125
834.0050048828125,804.3953857421875,-136.71896362304688,1000.0015869140624,191.40655517578125
832.3600463867188,815.9102783203125,-136.71896362304688,996.0953369140624,191.40655517578125
832.3600463867188,815.9102783203125,-132.81271362304688,1000.0015869140624,195.31280517578125
838.9400024414062,820.84521484375,-140.62521362304688,1000.0015869140624,191.40655517578125
843.8749389648438,837.2949829101562,-136.71896362304688,1000.0015869140624,199.21905517578125
843.8749389648438,837.2949829101562,-136.71896362304688,1003.9078369140624,199.21905517578125
845.5198974609375,838.9400024414062,-136.71896362304688,1003.9078369140624,199.21905517578125
843.8749389648438,829.070068359375,-136.71896362304688,1000.0015869140624,199.21905517578125
843.8749389648438,829.070068359375,-136.71896362304688,1000.0015869140624,195.31280517578125
845.5198974609375,830.715087890625,-136.71896362304688,996.0953369140624,195.31280517578125
848.8098754882812,837.2949829101562,-136.71896362304688,1000.0015869140624,195.31280517578125
847.1648559570312,842.2299194335938,-132.81271362304688,1000.0015869140624,199.21905517578125
842.2299194335938,819.2001953125,-128.90644836425778,1003.9078369140624,203.1253204345703
842.2299194335938,819.2001953125,-136.71896362304688,1000.0015869140624,195.31280517578125
850.454833984375,792.8805541992188,-136.71896362304688,1000.0015869140624,195.31280517578125
852.0997924804688,822.4901733398438,-132.81271362304688,1007.8140869140624,195.31280517578125
852.0997924804688,822.4901733398438,-128.90644836425778,1003.9078369140624,195.31280517578125
848.8098754882812,824.1351318359375,-128.90644836425778,1003.9078369140624,195.31280517578125
845.5198974609375,824.1351318359375,-125.0001983642578,996.0953369140624,195.31280517578125
847.1648559570312,835.6500244140625,-132.81271362304688,992.1890258789062,191.40655517578125
850.454833984375,830.715087890625,-132.81271362304688,1000.0015869140624,191.40655517578125
850.454833984375,830.715087890625,-128.90644836425778,1000.0015869140624,191.40655517578125
850.454833984375,830.715087890625,-128.90644836425778,1003.9078369140624,191.40655517578125
848.8098754882812,829.070068359375,-128.90644836425778,1003.9078369140624,191.40655517578125
852.0997924804688,838.9400024414062,-136.71896362304688,1003.9078369140624,191.40655517578125
852.0997924804688,838.9400024414062,-136.71896362304688,1000.0015869140624,191.40655517578125
852.0997924804688,843.8749389648438,-136.71896362304688,1000.0015869140624,191.40655517578125
847.1648559570312,857.0347290039062,-132.81271362304688,1000.0015869140624,191.40655517578125
850.454833984375,875.1295166015625,-132.81271362304688,1000.0015869140624,195.31280517578125
850.454833984375,875.1295166015625,-132.81271362304688,996.0953369140624,195.31280517578125
848.8098754882812,861.9697265625,-128.90644836425778,1003.9078369140624,199.21905517578125
853.7448120117188,865.2596435546875,-128.90644836425778,1003.9078369140624,199.21905517578125
848.8098754882812,863.6146850585938,-125.0001983642578,1000.0015869140624,203.1253204345703
848.8098754882812,863.6146850585938,-136.71896362304688,1003.9078369140624,191.40655517578125
852.0997924804688,870.194580078125,-128.90644836425778,1000.0015869140624,199.21905517578125
852.0997924804688,870.194580078125,-128.90644836425778,1007.8140869140624,191.40655517578125
852.0997924804688,855.3897705078125,-128.90644836425778,1007.8140869140624,191.40655517578125
847.1648559570312,858.6797485351562,-121.09394073486328,1000.0015869140624,195.31280517578125
852.0997924804688,855.3897705078125,-125.0001983642578,1000.0015869140624,191.40655517578125
842.2299194335938,865.2596435546875,-128.90644836425778,1000.0015869140624,191.40655517578125
842.2299194335938,865.2596435546875,-136.71896362304688,1000.0015869140624,195.31280517578125
850.454833984375,855.3897705078125,-136.71896362304688,1000.0015869140624,195.31280517578125
850.454833984375,871.839599609375,-128.90644836425778,1000.0015869140624,191.40655517578125
850.454833984375,865.2596435546875,-128.90644836425778,1000.0015869140624,191.40655517578125
848.8098754882812,857.0347290039062,-128.90644836425778,1003.9078369140624,195.31280517578125
848.8098754882812,857.0347290039062,-132.81271362304688,996.0953369140624,195.31280517578125
852.0997924804688,853.7448120117188,-132.81271362304688,1011.7203369140624,199.21905517578125
850.454833984375,855.3897705078125,-132.81271362304688,1011.7203369140624,199.21905517578125
848.8098754882812,857.0347290039062,-132.81271362304688,1011.7203369140624,199.21905517578125
845.5198974609375,873.4845581054688,-144.53147888183594,1000.0015869140624,191.40655517578125
842.2299194335938,855.3897705078125,-144.53147888183594,1000.0015869140624,191.40655517578125
843.8749389648438,861.9697265625,-167.96900939941406,1000.0015869140624,175.78152465820312
847.1648559570312,838.9400024414062,-148.43772888183594,1000.0015869140624,183.5940399169922
847.1648559570312,838.9400024414062,-128.90644836425778,1003.9078369140624,179.68777465820312
852.0997924804688,843.8749389648438,-121.09394073486328,1003.9078369140624,175.78152465820312
852.0997924804688,843.8749389648438,-113.28142547607422,988.2827758789062,179.68777465820312
852.0997924804688,843.8749389648438,-117.18768310546876,996.0953369140624,175.78152465820312
850.454833984375,843.8749389648438,-125.0001983642578,1000.0015869140624,167.96900939941406
850.454833984375,835.6500244140625,-117.18768310546876,1003.9078369140624,175.78152465820312
842.2299194335938,843.8749389648438,-121.09394073486328,1000.0015869140624,183.5940399169922
845.5198974609375,840.5849609375,-148.43772888183594,988.2827758789062,199.21905517578125
853.7448120117188,817.5552368164062,-117.18768310546876,984.3765258789062,203.1253204345703
855.3897705078125,863.6146850585938,-15.625024795532227,976.5640258789062,257.81289672851557
852.0997924804688,865.2596435546875,-31.25004959106445,972.6577758789062,160.156494140625
845.5198974609375,814.2652587890625,-136.71896362304688,1019.5328369140624,70.31260681152344
845.5198974609375,814.2652587890625,-136.71896362304688,1015.6265869140624,78.1251220703125
845.5198974609375,814.2652587890625,-132.81271362304688,1023.4390869140624,85.93763732910156
850.454833984375,812.6203002929688,-132.81271362304688,1023.4390869140624,85.93763732910156
850.454833984375,817.5552368164062,-136.71896362304688,1019.5328369140624,89.84388732910156
845.5198974609375,832.3600463867188,-144.53147888183594,1019.5328369140624,85.93763732910156
852.0997924804688,827.4251098632812,-132.81271362304688,1015.6265869140624,97.65640258789062
853.7448120117188,812.6203002929688,-136.71896362304688,1019.5328369140624,97.65640258789062
848.8098754882812,845.5198974609375,-140.62521362304688,1011.7203369140624,93.7501449584961
843.8749389648438,809.330322265625,-140.62521362304688,1011.7203369140624,93.7501449584961
842.2299194335938,814.2652587890625,-140.62521362304688,1023.4390869140624,89.84388732910156
850.454833984375,751.7560424804688,-140.62521362304688,1011.7203369140624,85.93763732910156
850.454833984375,751.7560424804688,-140.62521362304688,1015.6265869140624,85.93763732910156
866.9046630859375,884.9994506835938,-136.71896362304688,1011.7203369140624,85.93763732910156
863.6146850585938,876.7745361328125,-136.71896362304688,1015.6265869140624,85.93763732910156
863.6146850585938,876.7745361328125,-140.62521362304688,1007.8140869140624,82.03137969970703
853.7448120117188,942.57373046875,-132.81271362304688,1011.7203369140624,89.84388732910156
853.7448120117188,942.57373046875,-132.81271362304688,1019.5328369140624,93.7501449584961
857.0347290039062,896.5142822265625,-132.81271362304688,1019.5328369140624,93.7501449584961
853.7448120117188,880.064453125,-128.90644836425778,1011.7203369140624,93.7501449584961
853.7448120117188,880.064453125,-140.62521362304688,1007.8140869140624,89.84388732910156
853.7448120117188,899.8042602539062,-140.62521362304688,1007.8140869140624,89.84388732910156
848.8098754882812,917.8990478515624,-140.62521362304688,1019.5328369140624,93.7501449584961
848.8098754882812,917.8990478515624,-136.71896362304688,1015.6265869140624,89.84388732910156
852.0997924804688,863.6146850585938,-132.81271362304688,1015.6265869140624,93.7501449584961
848.8098754882812,896.5142822265625,-132.81271362304688,1015.6265869140624,89.84388732910156
838.9400024414062,850.454833984375,-132.81271362304688,1011.7203369140624,82.03137969970703
838.9400024414062,850.454833984375,-132.81271362304688,1015.6265869140624,82.03137969970703
838.9400024414062,835.6500244140625,-132.81271362304688,1015.6265869140624,82.03137969970703
845.5198974609375,829.070068359375,-136.71896362304688,1019.5328369140624,85.93763732910156
845.5198974609375,829.070068359375,-132.81271362304688,1007.8140869140624,89.84388732910156
845.5198974609375,848.8098754882812,-132.81271362304688,1007.8140869140624,89.84388732910156
852.0997924804688,824.1351318359375,-132.81271362304688,1011.7203369140624,89.84388732910156
852.0997924804688,870.194580078125,-132.81271362304688,1011.7203369140624,89.84388732910156
857.0347290039062,820.84521484375,-128.90644836425778,1015.6265869140624,93.7501449584961
857.0347290039062,820.84521484375,-132.81271362304688,1027.3453369140623,93.7501449584961
857.0347290039062,855.3897705078125,-132.81271362304688,1027.3453369140623,93.7501449584961
850.454833984375,935.9938354492188,-128.90644836425778,1011.7203369140624,97.65640258789062
838.9400024414062,929.4138793945312,-128.90644836425778,1015.6265869140624,93.7501449584961
838.9400024414062,929.4138793945312,-136.71896362304688,1015.6265869140624,93.7501449584961
838.9400024414062,878.4194946289062,-132.81271362304688,1015.6265869140624,93.7501449584961
847.1648559570312,855.3897705078125,-132.81271362304688,1015.6265869140624,93.7501449584961
850.454833984375,855.3897705078125,-125.0001983642578,1019.5328369140624,93.7501449584961
847.1648559570312,914.6090698242188,-125.0001983642578,1019.5328369140624,93.7501449584961
845.5198974609375,838.9400024414062,-128.90644836425778,1011.7203369140624,93.7501449584961
852.0997924804688,875.1295166015625,-132.81271362304688,1015.6265869140624,93.7501449584961
852.0997924804688,875.1295166015625,-132.81271362304688,1015.6265869140624,89.84388732910156
847.1648559570312,842.2299194335938,-121.09394073486328,1015.6265869140624,97.65640258789062
852.0997924804688,896.5142822265625,-125.0001983642578,1019.5328369140624,93.7501449584961
852.0997924804688,896.5142822265625,-128.90644836425778,1011.7203369140624,93.7501449584961
852.0997924804688,896.5142822265625,-121.09394073486328,1019.5328369140624,93.7501449584961
850.454833984375,855.3897705078125,-121.09394073486328,1019.5328369140624,93.7501449584961
852.0997924804688,865.2596435546875,-125.0001983642578,1015.6265869140624,93.7501449584961
850.454833984375,837.2949829101562,-128.90644836425778,1011.7203369140624,89.84388732910156
850.454833984375,875.1295166015625,-132.81271362304688,1011.7203369140624,89.84388732910156
852.0997924804688,830.715087890625,-128.90644836425778,1015.6265869140624,93.7501449584961
847.1648559570312,866.9046630859375,-128.90644836425778,1023.4390869140624,93.7501449584961
855.3897705078125,755.0459594726562,-128.90644836425778,1011.7203369140624,85.93763732910156
855.3897705078125,755.0459594726562,-128.90644836425778,1015.6265869140624,89.84388732910156
855.3897705078125,755.0459594726562,-125.0001983642578,1015.6265869140624,89.84388732910156
852.0997924804688,750.1110229492188,-125.0001983642578,1011.7203369140624,85.93763732910156
850.454833984375,773.1407470703125,-117.18768310546876,1019.5328369140624,93.7501449584961
850.454833984375,773.1407470703125,-125.0001983642578,1011.7203369140624,89.84388732910156
850.454833984375,773.1407470703125,-132.81271362304688,1015.6265869140624,85.93763732910156
857.0347290039062,881.70947265625,-132.81271362304688,1015.6265869140624,85.93763732910156
855.3897705078125,901.44921875,-121.09394073486328,1019.5328369140624,93.7501449584961
863.6146850585938,934.3488159179688,-121.09394073486328,1019.5328369140624,93.7501449584961
852.0997924804688,916.2540283203124,-117.18768310546876,1011.7203369140624,93.7501449584961
852.0997924804688,916.2540283203124,-125.0001983642578,1011.7203369140624,89.84388732910156
852.0997924804688,898.1592407226562,-125.0001983642578,1011.7203369140624,89.84388732910156
855.3897705078125,942.57373046875,-128.90644836425778,1015.6265869140624,89.84388732910156
855.3897705078125,942.57373046875,-125.0001983642578,1019.5328369140624,93.7501449584961
853.7448120117188,857.0347290039062,-125.0001983642578,1019.5328369140624,93.7501449584961
848.8098754882812,894.8693237304688,-132.81271362304688,1011.7203369140624,93.7501449584961
848.8098754882812,894.8693237304688,-128.90644836425778,1011.7203369140624,97.65640258789062
848.8098754882812,894.8693237304688,-132.81271362304688,1019.5328369140624,97.65640258789062
853.7448120117188,949.1536865234376,-132.81271362304688,1019.5328369140624,97.65640258789062
852.0997924804688,982.0532836914062,-132.81271362304688,1023.4390869140624,93.7501449584961
852.0997924804688,982.0532836914062,-128.90644836425778,1015.6265869140624,93.7501449584961
848.8098754882812,993.568115234375,-125.0001983642578,1015.6265869140624,85.93763732910156
848.8098754882812,993.568115234375,-125.0001983642578,1015.6265869140624,89.84388732910156
848.8098754882812,993.568115234375,-125.0001983642578,1011.7203369140624,89.84388732910156
858.6797485351562,993.568115234375,-128.90644836425778,1019.5328369140624,93.7501449584961
853.7448120117188,940.9287719726562,-128.90644836425778,1019.5328369140624,93.7501449584961
855.3897705078125,924.4789428710938,-132.81271362304688,1019.5328369140624,93.7501449584961
855.3897705078125,924.4789428710938,-128.90644836425778,1015.6265869140624,93.7501449584961
855.3897705078125,924.4789428710938,-128.90644836425778,1015.6265869140624,89.84388732910156
857.0347290039062,990.2781372070312,-128.90644836425778,1011.7203369140624,93.7501449584961
857.0347290039062,990.2781372070312,-121.09394073486328,1015.6265869140624,93.7501449584961
853.7448120117188,952.443603515625,-121.09394073486328,1015.6265869140624,93.7501449584961
857.0347290039062,904.7391967773438,-125.0001983642578,1015.6265869140624,89.84388732910156
848.8098754882812,827.4251098632812,-136.71896362304688,1015.6265869140624,85.93763732910156
843.8749389648438,829.070068359375,-136.71896362304688,1015.6265869140624,85.93763732910156
840.5849609375,815.9102783203125,-128.90644836425778,1011.7203369140624,89.84388732910156
850.454833984375,769.850830078125,-113.28142547607422,1023.4390869140624,97.65640258789062
850.454833984375,769.850830078125,-113.28142547607422,1027.3453369140623,97.65640258789062
850.454833984375,865.2596435546875,-125.0001983642578,1007.8140869140624,97.65640258789062
845.5198974609375,866.9046630859375,-125.0001983642578,996.0953369140624,97.65640258789062
845.5198974609375,866.9046630859375,-121.09394073486328,1003.9078369140624,101.56266021728516
848.8098754882812,855.3897705078125,-121.09394073486328,1003.9078369140624,101.56266021728516
850.454833984375,857.0347290039062,-101.56266021728516,980.4702758789062,117.18768310546876
850.454833984375,857.0347290039062,-117.18768310546876,1003.9078369140624,132.81271362304688
852.0997924804688,848.8098754882812,-117.18768310546876,1003.9078369140624,132.81271362304688
855.3897705078125,858.6797485351562,-128.90644836425778,1015.6265869140624,160.156494140625
843.8749389648438,863.6146850585938,-105.46891784667969,1011.7203369140624,167.96900939941406
843.8749389648438,863.6146850585938,-125.0001983642578,1007.8140869140624,156.250244140625
843.8749389648438,863.6146850585938,-128.90644836425778,1011.7203369140624,152.343994140625
843.8749389648438,855.3897705078125,-128.90644836425778,1011.7203369140624,152.343994140625
850.454833984375,857.0347290039062,-140.62521362304688,1000.0015869140624,140.62521362304688
847.1648559570312,858.6797485351562,-167.96900939941406,980.4702758789062,128.90644836425778
847.1648559570312,858.6797485351562,-175.78152465820312,964.8452758789062,140.62521362304688
843.8749389648438,848.8098754882812,-175.78152465820312,964.8452758789062,140.62521362304688
852.0997924804688,814.2652587890625,-175.78152465820312,964.8452758789062,140.62521362304688
852.0997924804688,814.2652587890625,-175.78152465820312,980.4702758789062,164.06275939941406
848.8098754882812,822.4901733398438,-171.87527465820312,1023.4390869140624,167.96900939941406
842.2299194335938,827.4251098632812,-183.5940399169922,1023.4390869140624,179.68777465820312
847.1648559570312,817.5552368164062,-179.68777465820312,1000.0015869140624,183.5940399169922
847.1648559570312,838.9400024414062,-148.43772888183594,1019.5328369140624,183.5940399169922
847.1648559570312,838.9400024414062,-140.62521362304688,1003.9078369140624,187.5002899169922
847.1648559570312,838.9400024414062,-140.62521362304688,1007.8140869140624,179.68777465820312
863.6146850585938,852.0997924804688,-179.68777465820312,1007.8140869140624,128.90644836425778
863.6146850585938,852.0997924804688,-171.87527465820312,1000.0015869140624,121.09394073486328
853.7448120117188,840.5849609375,-171.87527465820312,1000.0015869140624,121.09394073486328
843.8749389648438,858.6797485351562,-167.96900939941406,996.0953369140624,109.37516784667969
843.8749389648438,858.6797485351562,-175.78152465820312,1000.0015869140624,97.65640258789062
848.8098754882812,852.0997924804688,-175.78152465820312,1000.0015869140624,97.65640258789062
855.3897705078125,863.6146850585938,-140.62521362304688,1007.8140869140624,101.56266021728516
847.1648559570312,873.4845581054688,-152.343994140625,1007.8140869140624,101.56266021728516
847.1648559570312,886.6444091796875,-113.28142547607422,996.0953369140624,101.56266021728516
847.1648559570312,886.6444091796875,-148.43772888183594,1011.7203369140624,97.65640258789062
848.8098754882812,883.3544311523438,-148.43772888183594,1011.7203369140624,97.65640258789062
845.5198974609375,894.8693237304688,-152.343994140625,1007.8140869140624,97.65640258789062
845.5198974609375,894.8693237304688,-152.343994140625,1007.8140869140624,101.56266021728516
848.8098754882812,878.4194946289062,-144.53147888183594,1011.7203369140624,109.37516784667969
848.8098754882812,893.2243041992188,-144.53147888183594,1007.8140869140624,117.18768310546876
848.8098754882812,878.4194946289062,-148.43772888183594,1019.5328369140624,121.09394073486328
848.8098754882812,878.4194946289062,-148.43772888183594,1007.8140869140624,121.09394073486328
848.8098754882812,878.4194946289062,-156.250244140625,1011.7203369140624,117.18768310546876
840.5849609375,843.8749389648438,-164.06275939941406,984.3765258789062,132.81271362304688
840.5849609375,843.8749389648438,-171.87527465820312,1003.9078369140624,128.90644836425778
847.1648559570312,835.6500244140625,-171.87527465820312,1003.9078369140624,128.90644836425778
847.1648559570312,834.0050048828125,-187.5002899169922,1007.8140869140624,136.71896362304688
847.1648559570312,837.2949829101562,-183.5940399169922,1011.7203369140624,140.62521362304688
850.454833984375,842.2299194335938,-179.68777465820312,1015.6265869140624,140.62521362304688
850.454833984375,842.2299194335938,-179.68777465820312,1007.8140869140624,136.71896362304688
852.0997924804688,837.2949829101562,-179.68777465820312,1007.8140869140624,132.81271362304688
845.5198974609375,840.5849609375,-191.40655517578125,1019.5328369140624,125.0001983642578
850.454833984375,840.5849609375,-191.40655517578125,1011.7203369140624,121.09394073486328
847.1648559570312,843.8749389648438,-207.0315704345703,1027.3453369140623,85.93763732910156
852.0997924804688,840.5849609375,-203.1253204345703,1007.8140869140624,89.84388732910156
860.32470703125,837.2949829101562,-203.1253204345703,1007.8140869140624,89.84388732910156
861.9697265625,847.1648559570312,-191.40655517578125,992.1890258789062,70.31260681152344
850.454833984375,853.7448120117188,-187.5002899169922,976.5640258789062,82.03137969970703
845.5198974609375,866.9046630859375,-203.1253204345703,968.7515258789062,70.31260681152344
842.2299194335938,850.454833984375,-207.0315704345703,976.5640258789062,78.1251220703125
847.1648559570312,850.454833984375,-222.65660095214844,996.0953369140624,82.03137969970703
847.1648559570312,850.454833984375,-218.75033569335938,1000.0015869140624,82.03137969970703
850.454833984375,853.7448120117188,-218.75033569335938,1000.0015869140624,82.03137969970703
852.0997924804688,860.32470703125,-222.65660095214844,1011.7203369140624,82.03137969970703
852.0997924804688,866.9046630859375,-218.75033569335938,1000.0015869140624,74.21886444091797
848.8098754882812,858.6797485351562,-203.1253204345703,1000.0015869140624,78.1251220703125
837.2949829101562,873.4845581054688,-222.65660095214844,1007.8140869140624,78.1251220703125
838.9400024414062,870.194580078125,-222.65660095214844,1003.9078369140624,82.03137969970703
838.9400024414062,870.194580078125,-214.84408569335938,996.0953369140624,89.84388732910156
843.8749389648438,865.2596435546875,-218.75033569335938,1000.0015869140624,89.84388732910156
843.8749389648438,865.2596435546875,-222.65660095214844,996.0953369140624,89.84388732910156
852.0997924804688,855.3897705078125,-222.65660095214844,1000.0015869140624,97.65640258789062
848.8098754882812,840.5849609375,-218.75033569335938,1007.8140869140624,93.7501449584961
852.0997924804688,845.5198974609375,-222.65660095214844,1003.9078369140624,93.7501449584961
855.3897705078125,843.8749389648438,-222.65660095214844,1003.9078369140624,93.7501449584961
838.9400024414062,848.8098754882812,-218.75033569335938,1003.9078369140624,89.84388732910156
838.9400024414062,848.8098754882812,-218.75033569335938,996.0953369140624,93.7501449584961
838.9400024414062,848.8098754882812,-210.93783569335938,996.0953369140624,93.7501449584961
855.3897705078125,850.454833984375,-218.75033569335938,996.0953369140624,89.84388732910156
845.5198974609375,853.7448120117188,-210.93783569335938,1003.9078369140624,97.65640258789062
843.8749389648438,832.3600463867188,-214.84408569335938,1003.9078369140624,93.7501449584961
850.454833984375,842.2299194335938,-218.75033569335938,1003.9078369140624,93.7501449584961
850.454833984375,842.2299194335938,-214.84408569335938,996.0953369140624,97.65640258789062
850.454833984375,840.5849609375,-214.84408569335938,996.0953369140624,97.65640258789062
845.5198974609375,847.1648559570312,-214.84408569335938,1003.9078369140624,97.65640258789062
845.5198974609375,847.1648559570312,-218.75033569335938,1003.9078369140624,93.7501449584961
850.454833984375,840.5849609375,-214.84408569335938,1003.9078369140624,93.7501449584961
863.6146850585938,837.2949829101562,-218.75033569335938,996.0953369140624,89.84388732910156
853.7448120117188,840.5849609375,-218.75033569335938,996.0953369140624,89.84388732910156
848.8098754882812,840.5849609375,-210.93783569335938,1000.0015869140624,97.65640258789062
848.8098754882812,840.5849609375,-214.84408569335938,996.0953369140624,93.7501449584961
848.8098754882812,840.5849609375,-222.65660095214844,1000.0015869140624,89.84388732910156
861.9697265625,837.2949829101562,-222.65660095214844,1000.0015869140624,89.84388732910156
861.9697265625,842.2299194335938,-207.0315704345703,1007.8140869140624,97.65640258789062
860.32470703125,835.6500244140625,-207.0315704345703,1003.9078369140624,93.7501449584961
861.9697265625,838.9400024414062,-207.0315704345703,1000.0015869140624,93.7501449584961
861.9697265625,838.9400024414062,-210.93783569335938,1000.0015869140624,89.84388732910156
857.0347290039062,827.4251098632812,-210.93783569335938,1000.0015869140624,89.84388732910156
858.6797485351562,840.5849609375,-203.1253204345703,1000.0015869140624,97.65640258789062
858.6797485351562,840.5849609375,-210.93783569335938,1007.8140869140624,93.7501449584961
852.0997924804688,850.454833984375,-210.93783569335938,1007.8140869140624,97.65640258789062
852.0997924804688,850.454833984375,-210.93783569335938,1003.9078369140624,93.7501449584961
838.9400024414062,863.6146850585938,-207.0315704345703,1000.0015869140624,93.7501449584961
840.5849609375,857.0347290039062,-207.0315704345703,1003.9078369140624,93.7501449584961
840.5849609375,857.0347290039062,-210.93783569335938,1000.0015869140624,93.7501449584961
843.8749389648438,855.3897705078125,-210.93783569335938,1000.0015869140624,93.7501449584961
850.454833984375,842.2299194335938,-207.0315704345703,1003.9078369140624,97.65640258789062
850.454833984375,842.2299194335938,-207.0315704345703,1011.7203369140624,97.65640258789062
852.0997924804688,847.1648559570312,-207.0315704345703,1007.8140869140624,97.65640258789062
853.7448120117188,866.9046630859375,-203.1253204345703,1003.9078369140624,97.65640258789062
850.454833984375,842.2299194335938,-203.1253204345703,1000.0015869140624,93.7501449584961
843.8749389648438,845.5198974609375,-207.0315704345703,1003.9078369140624,93.7501449584961
842.2299194335938,853.7448120117188,-207.0315704345703,1003.9078369140624,89.84388732910156
842.2299194335938,853.7448120117188,-203.1253204345703,1000.0015869140624,93.7501449584961
845.5198974609375,834.0050048828125,-203.1253204345703,1003.9078369140624,97.65640258789062
842.2299194335938,834.0050048828125,-203.1253204345703,1003.9078369140624,97.65640258789062
842.2299194335938,824.1351318359375,-207.0315704345703,1003.9078369140624,97.65640258789062
842.2299194335938,824.1351318359375,-207.0315704345703,1007.8140869140624,97.65640258789062
852.0997924804688,820.84521484375,-207.0315704345703,1007.8140869140624,97.65640258789062
852.0997924804688,850.454833984375,-203.1253204345703,1000.0015869140624,97.65640258789062
845.5198974609375,848.8098754882812,-210.93783569335938,1000.0015869140624,93.7501449584961
845.5198974609375,848.8098754882812,-207.0315704345703,1003.9078369140624,101.56266021728516
847.1648559570312,852.0997924804688,-203.1253204345703,1011.7203369140624,101.56266021728516
852.0997924804688,848.8098754882812,-203.1253204345703,1007.8140869140624,101.56266021728516
852.0997924804688,848.8098754882812,-195.31280517578125,1003.9078369140624,101.56266021728516
853.7448120117188,840.5849609375,-195.31280517578125,1000.0015869140624,101.56266021728516
848.8098754882812,852.0997924804688,-195.31280517578125,1000.0015869140624,101.56266021728516
852.0997924804688,848.8098754882812,-207.0315704345703,1000.0015869140624,101.56266021728516
848.8098754882812,838.9400024414062,-210.93783569335938,1000.0015869140624,97.65640258789062
848.8098754882812,838.9400024414062,-199.21905517578125,1011.7203369140624,101.56266021728516
848.8098754882812,843.8749389648438,-199.21905517578125,1011.7203369140624,101.56266021728516
848.8098754882812,838.9400024414062,-199.21905517578125,1000.0015869140624,101.56266021728516
848.8098754882812,838.9400024414062,-203.1253204345703,996.0953369140624,101.56266021728516
842.2299194335938,857.0347290039062,-203.1253204345703,996.0953369140624,101.56266021728516
861.9697265625,827.4251098632812,-203.1253204345703,1003.9078369140624,101.56266021728516
858.6797485351562,838.9400024414062,-207.0315704345703,1003.9078369140624,101.56266021728516
852.0997924804688,824.1351318359375,-203.1253204345703,1003.9078369140624,101.56266021728516
852.0997924804688,824.1351318359375,-210.93783569335938,1000.0015869140624,93.7501449584961
858.6797485351562,832.3600463867188,-207.0315704345703,1000.0015869140624,97.65640258789062
855.3897705078125,838.9400024414062,-195.31280517578125,1003.9078369140624,101.56266021728516
853.7448120117188,845.5198974609375,-195.31280517578125,1003.9078369140624,105.46891784667969
853.7448120117188,845.5198974609375,-203.1253204345703,1003.9078369140624,101.56266021728516
848.8098754882812,829.070068359375,-203.1253204345703,1003.9078369140624,105.46891784667969
852.0997924804688,824.1351318359375,-195.31280517578125,1000.0015869140624,101.56266021728516
848.8098754882812,809.330322265625,-195.31280517578125,1000.0015869140624,101.56266021728516
852.0997924804688,837.2949829101562,-195.31280517578125,1000.0015869140624,101.56266021728516
842.2299194335938,840.5849609375,-203.1253204345703,1007.8140869140624,101.56266021728516
842.2299194335938,840.5849609375,-199.21905517578125,1003.9078369140624,101.56266021728516
842.2299194335938,840.5849609375,-195.31280517578125,1000.0015869140624,101.56266021728516
842.2299194335938,845.5198974609375,-195.31280517578125,1000.0015869140624,101.56266021728516
852.0997924804688,853.7448120117188,-195.31280517578125,1003.9078369140624,105.46891784667969
850.454833984375,866.9046630859375,-199.21905517578125,1007.8140869140624,101.56266021728516
853.7448120117188,868.5496215820312,-195.31280517578125,1007.8140869140624,105.46891784667969
853.7448120117188,868.5496215820312,-199.21905517578125,1011.7203369140624,105.46891784667969
850.454833984375,852.0997924804688,-191.40655517578125,1003.9078369140624,105.46891784667969
850.454833984375,852.0997924804688,-199.21905517578125,1003.9078369140624,101.56266021728516
852.0997924804688,845.5198974609375,-195.31280517578125,1003.9078369140624,101.56266021728516
848.8098754882812,840.5849609375,-191.40655517578125,1007.8140869140624,101.56266021728516
852.0997924804688,853.7448120117188,-191.40655517578125,1003.9078369140624,101.56266021728516
848.8098754882812,853.7448120117188,-195.31280517578125,1003.9078369140624,101.56266021728516
847.1648559570312,865.2596435546875,-199.21905517578125,1003.9078369140624,101.56266021728516
857.0347290039062,860.32470703125,-195.31280517578125,1003.9078369140624,101.56266021728516
855.3897705078125,865.2596435546875,-199.21905517578125,1007.8140869140624,101.56266021728516
855.3897705078125,865.2596435546875,-203.1253204345703,996.0953369140624,97.65640258789062
855.3897705078125,865.2596435546875,-203.1253204345703,1003.9078369140624,97.65640258789062
855.3897705078125,865.2596435546875,-191.40655517578125,1007.8140869140624,105.46891784667969
853.7448120117188,843.8749389648438,-191.40655517578125,1019.5328369140624,105.46891784667969
853.7448120117188,843.8749389648438,-191.40655517578125,1003.9078369140624,101.56266021728516
845.5198974609375,855.3897705078125,-191.40655517578125,1003.9078369140624,101.56266021728516
847.1648559570312,853.7448120117188,-199.21905517578125,1003.9078369140624,101.56266021728516
848.8098754882812,850.454833984375,-195.31280517578125,1007.8140869140624,97.65640258789062
848.8098754882812,850.454833984375,-195.31280517578125,1000.0015869140624,93.7501449584961
853.7448120117188,848.8098754882812,-195.31280517578125,1000.0015869140624,93.7501449584961
852.0997924804688,843.8749389648438,-187.5002899169922,1007.8140869140624,97.65640258789062
848.8098754882812,857.0347290039062,-195.31280517578125,1007.8140869140624,101.56266021728516
848.8098754882812,857.0347290039062,-195.31280517578125,1007.8140869140624,97.65640258789062
857.0347290039062,860.32470703125,-191.40655517578125,1003.9078369140624,101.56266021728516
858.6797485351562,847.1648559570312,-195.31280517578125,1000.0015869140624,101.56266021728516
855.3897705078125,865.2596435546875,-191.40655517578125,1003.9078369140624,109.37516784667969
855.3897705078125,865.2596435546875,-187.5002899169922,1015.6265869140624,109.37516784667969
852.0997924804688,860.32470703125,-187.5002899169922,1015.6265869140624,109.37516784667969
852.0997924804688,838.9400024414062,-191.40655517578125,1000.0015869140624,105.46891784667969
852.0997924804688,838.9400024414062,-187.5002899169922,1000.0015869140624,105.46891784667969
848.8098754882812,850.454833984375,-187.5002899169922,1000.0015869140624,105.46891784667969
842.2299194335938,842.2299194335938,-187.5002899169922,1007.8140869140624,101.56266021728516
843.8749389648438,860.32470703125,-187.5002899169922,1011.7203369140624,105.46891784667969
843.8749389648438,852.0997924804688,-191.40655517578125,1007.8140869140624,97.65640258789062
852.0997924804688,855.3897705078125,-191.40655517578125,1003.9078369140624,97.65640258789062
847.1648559570312,850.454833984375,-191.40655517578125,1007.8140869140624,97.65640258789062
850.454833984375,855.3897705078125,-187.5002899169922,1003.9078369140624,105.46891784667969
850.454833984375,855.3897705078125,-187.5002899169922,1007.8140869140624,109.37516784667969
850.454833984375,832.3600463867188,-187.5002899169922,1007.8140869140624,109.37516784667969
852.0997924804688,842.2299194335938,-187.5002899169922,1007.8140869140624,105.46891784667969
852.0997924804688,842.2299194335938,-187.5002899169922,1003.9078369140624,101.56266021728516
855.3897705078125,845.5198974609375,-187.5002899169922,1015.6265869140624,97.65640258789062
855.3897705078125,845.5198974609375,-183.5940399169922,1007.8140869140624,101.56266021728516
848.8098754882812,842.2299194335938,-183.5940399169922,1007.8140869140624,101.56266021728516
845.5198974609375,850.454833984375,-187.5002899169922,1000.0015869140624,93.7501449584961
845.5198974609375,850.454833984375,-187.5002899169922,1003.9078369140624,93.7501449584961
838.9400024414062,830.715087890625,-187.5002899169922,1003.9078369140624,97.65640258789062
850.454833984375,857.0347290039062,-191.40655517578125,1007.8140869140624,97.65640258789062
850.454833984375,857.0347290039062,-195.31280517578125,1003.9078369140624,97.65640258789062
850.454833984375,857.0347290039062,-195.31280517578125,1007.8140869140624,93.7501449584961
850.454833984375,853.7448120117188,-191.40655517578125,1003.9078369140624,97.65640258789062
850.454833984375,853.7448120117188,-191.40655517578125,1007.8140869140624,93.7501449584961
850.454833984375,853.7448120117188,-191.40655517578125,1007.8140869140624,97.65640258789062
850.454833984375,842.2299194335938,-191.40655517578125,1007.8140869140624,97.65640258789062
845.5198974609375,855.3897705078125,-183.5940399169922,1007.8140869140624,93.7501449584961
847.1648559570312,835.6500244140625,-191.40655517578125,1003.9078369140624,89.84388732910156
843.8749389648438,848.8098754882812,-183.5940399169922,1003.9078369140624,93.7501449584961
843.8749389648438,848.8098754882812,-191.40655517578125,1003.9078369140624,93.7501449584961
845.5198974609375,852.0997924804688,-191.40655517578125,1007.8140869140624,93.7501449584961
848.8098754882812,838.9400024414062,-187.5002899169922,1007.8140869140624,97.65640258789062
852.0997924804688,843.8749389648438,-191.40655517578125,1007.8140869140624,93.7501449584961
853.7448120117188,852.0997924804688,-187.5002899169922,1007.8140869140624,93.7501449584961
853.7448120117188,852.0997924804688,-187.5002899169922,1007.8140869140624,89.84388732910156
850.454833984375,847.1648559570312,-187.5002899169922,1007.8140869140624,89.84388732910156
847.1648559570312,835.6500244140625,-187.5002899169922,1007.8140869140624,93.7501449584961
847.1648559570312,848.8098754882812,-179.68777465820312,1007.8140869140624,97.65640258789062
847.1648559570312,848.8098754882812,-183.5940399169922,1007.8140869140624,93.7501449584961
848.8098754882812,837.2949829101562,-187.5002899169922,1003.9078369140624,89.84388732910156
848.8098754882812,837.2949829101562,-183.5940399169922,1007.8140869140624,93.7501449584961
843.8749389648438,832.3600463867188,-179.68777465820312,1015.6265869140624,93.7501449584961
834.0050048828125,825.7801513671875,-175.78152465820312,1007.8140869140624,97.65640258789062
834.0050048828125,825.7801513671875,-171.87527465820312,1003.9078369140624,97.65640258789062
834.0050048828125,825.7801513671875,-175.78152465820312,1003.9078369140624,97.65640258789062
838.9400024414062,824.1351318359375,-175.78152465820312,1003.9078369140624,97.65640258789062
845.5198974609375,825.7801513671875,-187.5002899169922,1011.7203369140624,93.7501449584961
845.5198974609375,825.7801513671875,-183.5940399169922,1007.8140869140624,93.7501449584961
842.2299194335938,838.9400024414062,-187.5002899169922,1011.7203369140624,93.7501449584961
845.5198974609375,838.9400024414062,-179.68777465820312,1007.8140869140624,93.7501449584961
845.5198974609375,838.9400024414062,-179.68777465820312,1003.9078369140624,93.7501449584961
845.5198974609375,838.9400024414062,-183.5940399169922,1007.8140869140624,89.84388732910156
848.8098754882812,835.6500244140625,-183.5940399169922,1007.8140869140624,89.84388732910156
847.1648559570312,845.5198974609375,-183.5940399169922,1011.7203369140624,93.7501449584961
847.1648559570312,834.0050048828125,-179.68777465820312,1007.8140869140624,97.65640258789062
847.1648559570312,847.1648559570312,-187.5002899169922,1003.9078369140624,89.84388732910156
850.454833984375,830.715087890625,-179.68777465820312,1007.8140869140624,93.7501449584961
848.8098754882812,830.715087890625,-171.87527465820312,1015.6265869140624,93.7501449584961
848.8098754882812,830.715087890625,-171.87527465820312,1003.9078369140624,93.7501449584961
845.5198974609375,843.8749389648438,-171.87527465820312,1003.9078369140624,93.7501449584961
843.8749389648438,843.8749389648438,-187.5002899169922,1011.7203369140624,93.7501449584961
852.0997924804688,827.4251098632812,-183.5940399169922,1007.8140869140624,93.7501449584961
850.454833984375,845.5198974609375,-179.68777465820312,1007.8140869140624,93.7501449584961
850.454833984375,845.5198974609375,-183.5940399169922,1007.8140869140624,97.65640258789062
850.454833984375,837.2949829101562,-183.5940399169922,1011.7203369140624,93.7501449584961
850.454833984375,837.2949829101562,-179.68777465820312,1007.8140869140624,93.7501449584961
843.8749389648438,838.9400024414062,-183.5940399169922,1003.9078369140624,97.65640258789062
853.7448120117188,840.5849609375,-183.5940399169922,1011.7203369140624,93.7501449584961
852.0997924804688,853.7448120117188,-183.5940399169922,1007.8140869140624,93.7501449584961
847.1648559570312,827.4251098632812,-175.78152465820312,1007.8140869140624,93.7501449584961
847.1648559570312,827.4251098632812,-179.68777465820312,1015.6265869140624,97.65640258789062
847.1648559570312,827.4251098632812,-179.68777465820312,1007.8140869140624,93.7501449584961
850.454833984375,840.5849609375,-187.5002899169922,1007.8140869140624,89.84388732910156
850.454833984375,840.5849609375,-179.68777465820312,1015.6265869140624,93.7501449584961
847.1648559570312,842.2299194335938,-179.68777465820312,1015.6265869140624,93.7501449584961
848.8098754882812,843.8749389648438,-171.87527465820312,1007.8140869140624,97.65640258789062
848.8098754882812,843.8749389648438,-179.68777465820312,1000.0015869140624,97.65640258789062
845.5198974609375,852.0997924804688,-179.68777465820312,1000.0015869140624,97.65640258789062
842.2299194335938,860.32470703125,-187.5002899169922,1007.8140869140624,93.7501449584961
842.2299194335938,860.32470703125,-183.5940399169922,1011.7203369140624,93.7501449584961
852.0997924804688,843.8749389648438,-179.68777465820312,1007.8140869140624,93.7501449584961
857.0347290039062,825.7801513671875,-183.5940399169922,1007.8140869140624,89.84388732910156
853.7448120117188,848.8098754882812,-179.68777465820312,1003.9078369140624,93.7501449584961
850.454833984375,850.454833984375,-183.5940399169922,1011.7203369140624,93.7501449584961
850.454833984375,850.454833984375,-183.5940399169922,1007.8140869140624,93.7501449584961
860.32470703125,868.5496215820312,-183.5940399169922,1007.8140869140624,93.7501449584961
855.3897705078125,863.6146850585938,-175.78152465820312,1011.7203369140624,93.7501449584961
855.3897705078125,863.6146850585938,-171.87527465820312,1011.7203369140624,97.65640258789062
852.0997924804688,871.839599609375,-175.78152465820312,1011.7203369140624,93.7501449584961
848.8098754882812,850.454833984375,-183.5940399169922,1007.8140869140624,89.84388732910156
847.1648559570312,860.32470703125,-171.87527465820312,1015.6265869140624,89.84388732910156
847.1648559570312,860.32470703125,-171.87527465820312,1011.7203369140624,93.7501449584961
847.1648559570312,855.3897705078125,-171.87527465820312,1011.7203369140624,93.7501449584961
848.8098754882812,853.7448120117188,-175.78152465820312,1003.9078369140624,93.7501449584961
848.8098754882812,853.7448120117188,-175.78152465820312,1003.9078369140624,89.84388732910156
850.454833984375,850.454833984375,-175.78152465820312,1003.9078369140624,89.84388732910156
847.1648559570312,845.5198974609375,-175.78152465820312,1011.7203369140624,93.7501449584961
852.0997924804688,848.8098754882812,-171.87527465820312,1007.8140869140624,93.7501449584961
852.0997924804688,848.8098754882812,-175.78152465820312,1011.7203369140624,93.7501449584961
852.0997924804688,860.32470703125,-171.87527465820312,1007.8140869140624,93.7501449584961
848.8098754882812,853.7448120117188,-175.78152465820312,1011.7203369140624,93.7501449584961
848.8098754882812,853.7448120117188,-171.87527465820312,1007.8140869140624,97.65640258789062
852.0997924804688,861.9697265625,-183.5940399169922,1011.7203369140624,89.84388732910156
852.0997924804688,861.9697265625,-171.87527465820312,1015.6265869140624,97.65640258789062
850.454833984375,852.0997924804688,-171.87527465820312,1015.6265869140624,97.65640258789062
847.1648559570312,848.8098754882812,-167.96900939941406,1003.9078369140624,97.65640258789062
847.1648559570312,848.8098754882812,-171.87527465820312,1000.0015869140624,97.65640258789062
848.8098754882812,845.5198974609375,-175.78152465820312,1003.9078369140624,97.65640258789062
848.8098754882812,845.5198974609375,-179.68777465820312,1011.7203369140624,97.65640258789062
848.8098754882812,845.5198974609375,-179.68777465820312,1007.8140869140624,97.65640258789062
847.1648559570312,832.3600463867188,-179.68777465820312,1007.8140869140624,97.65640258789062
848.8098754882812,855.3897705078125,-175.78152465820312,1003.9078369140624,93.7501449584961
847.1648559570312,847.1648559570312,-171.87527465820312,1011.7203369140624,93.7501449584961
853.7448120117188,835.6500244140625,-171.87527465820312,1007.8140869140624,93.7501449584961
857.0347290039062,827.4251098632812,-171.87527465820312,1011.7203369140624,93.7501449584961
857.0347290039062,827.4251098632812,-171.87527465820312,1011.7203369140624,97.65640258789062
855.3897705078125,853.7448120117188,-167.96900939941406,1007.8140869140624,97.65640258789062
855.3897705078125,848.8098754882812,-179.68777465820312,1011.7203369140624,89.84388732910156
852.0997924804688,842.2299194335938,-164.06275939941406,1011.7203369140624,97.65640258789062
857.0347290039062,834.0050048828125,-164.06275939941406,1011.7203369140624,97.65640258789062
843.8749389648438,847.1648559570312,-175.78152465820312,1007.8140869140624,93.7501449584961
843.8749389648438,847.1648559570312,-171.87527465820312,1007.8140869140624,97.65640258789062
845.5198974609375,843.8749389648438,-171.87527465820312,1007.8140869140624,97.65640258789062
845.5198974609375,847.1648559570312,-171.87527465820312,1011.7203369140624,97.65640258789062
843.8749389648438,837.2949829101562,-171.87527465820312,1011.7203369140624,97.65640258789062
855.3897705078125,835.6500244140625,-175.78152465820312,1007.8140869140624,93.7501449584961
850.454833984375,830.715087890625,-175.78152465820312,1007.8140869140624,89.84388732910156
850.454833984375,830.715087890625,-171.87527465820312,1007.8140869140624,93.7501449584961
848.8098754882812,857.0347290039062,-171.87527465820312,1007.8140869140624,93.7501449584961
845.5198974609375,853.7448120117188,-167.96900939941406,1011.7203369140624,93.7501449584961
845.5198974609375,853.7448120117188,-171.87527465820312,1007.8140869140624,93.7501449584961
852.0997924804688,845.5198974609375,-167.96900939941406,1003.9078369140624,93.7501449584961
852.0997924804688,845.5198974609375,-171.87527465820312,1019.5328369140624,93.7501449584961
852.0997924804688,845.5198974609375,-167.96900939941406,1015.6265869140624,93.7501449584961
848.8098754882812,842.2299194335938,-167.96900939941406,1015.6265869140624,93.7501449584961
848.8098754882812,840.5849609375,-167.96900939941406,1011.7203369140624,97.65640258789062
848.8098754882812,840.5849609375,-175.78152465820312,1007.8140869140624,89.84388732910156
847.1648559570312,843.8749389648438,-175.78152465820312,1007.8140869140624,93.7501449584961
847.1648559570312,843.8749389648438,-171.87527465820312,1011.7203369140624,93.7501449584961
850.454833984375,837.2949829101562,-171.87527465820312,1011.7203369140624,93.7501449584961
847.1648559570312,840.5849609375,-167.96900939941406,1007.8140869140624,93.7501449584961
843.8749389648438,834.0050048828125,-171.87527465820312,1011.7203369140624,89.84388732910156
845.5198974609375,840.5849609375,-171.87527465820312,1007.8140869140624,93.7501449584961
845.5198974609375,840.5849609375,-171.87527465820312,1011.7203369140624,93.7501449584961
847.1648559570312,845.5198974609375,-171.87527465820312,1011.7203369140624,93.7501449584961
847.1648559570312,845.5198974609375,-167.96900939941406,1015.6265869140624,93.7501449584961
843.8749389648438,842.2299194335938,-167.96900939941406,1007.8140869140624,93.7501449584961
840.5849609375,845.5198974609375,-175.78152465820312,1007.8140869140624,89.84388732910156
845.5198974609375,842.2299194335938,-171.87527465820312,1011.7203369140624,93.7501449584961
847.1648559570312,835.6500244140625,-171.87527465820312,1007.8140869140624,93.7501449584961
852.0997924804688,834.0050048828125,-171.87527465820312,1011.7203369140624,93.7501449584961
855.3897705078125,840.5849609375,-171.87527465820312,1007.8140869140624,89.84388732910156
848.8098754882812,834.0050048828125,-171.87527465820312,1007.8140869140624,89.84388732910156
850.454833984375,865.2596435546875,-171.87527465820312,1007.8140869140624,89.84388732910156
852.0997924804688,845.5198974609375,-164.06275939941406,1007.8140869140624,93.7501449584961
852.0997924804688,871.839599609375,-167.96900939941406,1011.7203369140624,89.84388732910156
852.0997924804688,871.839599609375,-175.78152465820312,1007.8140869140624,85.93763732910156
845.5198974609375,857.0347290039062,-167.96900939941406,1015.6265869140624,89.84388732910156
847.1648559570312,858.6797485351562,-160.156494140625,1007.8140869140624,97.65640258789062
853.7448120117188,852.0997924804688,-175.78152465820312,1011.7203369140624,93.7501449584961
845.5198974609375,861.9697265625,-175.78152465820312,1011.7203369140624,93.7501449584961
845.5198974609375,861.9697265625,-171.87527465820312,1007.8140869140624,93.7501449584961
852.0997924804688,850.454833984375,-171.87527465820312,1011.7203369140624,93.7501449584961
852.0997924804688,850.454833984375,-171.87527465820312,1011.7203369140624,89.84388732910156
857.0347290039062,860.32470703125,-175.78152465820312,1007.8140869140624,89.84388732910156
