EEG1,EEG2,Acc_X,Acc_Y,Acc_Z
866.9046630859375,891.579345703125,-351.56304931640625,941.40771484375,277.3441772460937
865.2596435546875,893.2243041992188,-355.46929931640625,921.87646484375,265.6254272460937
865.2596435546875,894.8693237304688,-355.46929931640625,921.87646484375,265.6254272460937
863.6146850585938,896.5142822265625,-351.56304931640625,937.50146484375,269.5316772460937
861.9697265625,891.579345703125,-347.65679931640625,929.68896484375,269.5316772460937
863.6146850585938,908.0291748046876,-351.56304931640625,941.40771484375,261.71914672851557
857.0347290039062,894.8693237304688,-335.9380187988281,929.68896484375,273.4379272460937
863.6146850585938,912.964111328125,-343.75054931640625,933.59521484375,265.6254272460937
863.6146850585938,912.964111328125,-343.75054931640625,929.68896484375,265.6254272460937
861.9697265625,911.319091796875,-343.75054931640625,929.68896484375,265.6254272460937
860.32470703125,903.09423828125,-351.56304931640625,933.59521484375,261.71914672851557
858.6797485351562,909.6741333007812,-332.0317687988281,941.40771484375,269.5316772460937
865.2596435546875,904.7391967773438,-335.9380187988281,937.50146484375,269.5316772460937
866.9046630859375,919.5440063476562,-343.75054931640625,941.40771484375,265.6254272460937
866.9046630859375,919.5440063476562,-339.8442687988281,933.59521484375,261.71914672851557
865.2596435546875,914.6090698242188,-343.75054931640625,937.50146484375,261.71914672851557
863.6146850585938,912.964111328125,-339.8442687988281,933.59521484375,265.6254272460937
865.2596435546875,914.6090698242188,-339.8442687988281,933.59521484375,265.6254272460937
863.6146850585938,904.7391967773438,-347.65679931640625,937.50146484375,265.6254272460937
866.9046630859375,912.964111328125,-339.8442687988281,937.50146484375,265.6254272460937
866.9046630859375,912.964111328125,-339.8442687988281,937.50146484375,261.71914672851557
866.9046630859375,917.8990478515624,-347.65679931640625,941.40771484375,257.81289672851557
866.9046630859375,917.8990478515624,-335.9380187988281,929.68896484375,261.71914672851557
866.9046630859375,917.8990478515624,-335.9380187988281,941.40771484375,261.71914672851557
866.9046630859375,917.8990478515624,-339.8442687988281,945.31396484375,261.71914672851557
863.6146850585938,917.8990478515624,-335.9380187988281,937.50146484375,261.71914672851557
857.0347290039062,884.9994506835938,-343.75054931640625,933.59521484375,273.4379272460937
857.0347290039062,884.9994506835938,-347.65679931640625,933.59521484375,265.6254272460937
857.0347290039062,884.9994506835938,-351.56304931640625,933.59521484375,265.6254272460937
853.7448120117188,884.9994506835938,-347.65679931640625,933.59521484375,265.6254272460937
853.7448120117188,884.9994506835938,-343.75054931640625,937.50146484375,265.6254272460937
857.0347290039062,891.579345703125,-343.75054931640625,937.50146484375,265.6254272460937
855.3897705078125,889.9343872070312,-343.75054931640625,937.50146484375,265.6254272460937
855.3897705078125,889.9343872070312,-343.75054931640625,933.59521484375,265.6254272460937
848.8098754882812,888.2893676757812,-343.75054931640625,937.50146484375,265.6254272460937
848.8098754882812,886.6444091796875,-339.8442687988281,929.68896484375,269.5316772460937
840.5849609375,870.194580078125,-339.8442687988281,937.50146484375,269.5316772460937
840.5849609375,870.194580078125,-339.8442687988281,933.59521484375,269.5316772460937
848.8098754882812,870.194580078125,-339.8442687988281,929.68896484375,265.6254272460937
848.8098754882812,870.194580078125,-339.8442687988281,933.59521484375,265.6254272460937
852.0997924804688,878.4194946289062,-339.8442687988281,933.59521484375,265.6254272460937
850.454833984375,884.9994506835938,-335.9380187988281,937.50146484375,273.4379272460937
850.454833984375,884.9994506835938,-339.8442687988281,941.40771484375,269.5316772460937
855.3897705078125,868.5496215820312,-339.8442687988281,941.40771484375,269.5316772460937
852.0997924804688,848.8098754882812,-335.9380187988281,933.59521484375,273.4379272460937
853.7448120117188,855.3897705078125,-343.75054931640625,945.31396484375,265.6254272460937
853.7448120117188,855.3897705078125,-339.8442687988281,933.59521484375,269.5316772460937
850.454833984375,884.9994506835938,-339.8442687988281,933.59521484375,269.5316772460937
850.454833984375,884.9994506835938,-339.8442687988281,937.50146484375,269.5316772460937
845.5198974609375,881.70947265625,-343.75054931640625,941.40771484375,269.5316772460937
850.454833984375,889.9343872070312,-343.75054931640625,937.50146484375,269.5316772460937
857.0347290039062,916.2540283203124,-343.75054931640625,933.59521484375,273.4379272460937
852.0997924804688,908.0291748046876,-347.65679931640625,933.59521484375,273.4379272460937
852.0997924804688,908.0291748046876,-347.65679931640625,937.50146484375,269.5316772460937
853.7448120117188,906.3841552734376,-343.75054931640625,933.59521484375,269.5316772460937
853.7448120117188,906.3841552734376,-339.8442687988281,933.59521484375,269.5316772460937
855.3897705078125,911.319091796875,-339.8442687988281,933.59521484375,269.5316772460937
861.9697265625,919.5440063476562,-335.9380187988281,933.59521484375,273.4379272460937
860.32470703125,838.9400024414062,-335.9380187988281,937.50146484375,269.5316772460937
865.2596435546875,884.9994506835938,-351.56304931640625,937.50146484375,261.71914672851557
865.2596435546875,884.9994506835938,-339.8442687988281,929.68896484375,265.6254272460937
865.2596435546875,884.9994506835938,-335.9380187988281,937.50146484375,273.4379272460937
858.6797485351562,906.3841552734376,-339.8442687988281,949.22021484375,269.5316772460937
858.6797485351562,906.3841552734376,-335.9380187988281,933.59521484375,273.4379272460937
852.0997924804688,921.18896484375,-347.65679931640625,937.50146484375,265.6254272460937
852.0997924804688,921.18896484375,-339.8442687988281,929.68896484375,269.5316772460937
852.0997924804688,921.18896484375,-335.9380187988281,937.50146484375,273.4379272460937
863.6146850585938,919.5440063476562,-347.65679931640625,937.50146484375,269.5316772460937
853.7448120117188,909.6741333007812,-347.65679931640625,933.59521484375,261.71914672851557
853.7448120117188,909.6741333007812,-351.56304931640625,937.50146484375,261.71914672851557
853.7448120117188,909.6741333007812,-347.65679931640625,937.50146484375,261.71914672851557
850.454833984375,924.4789428710938,-347.65679931640625,937.50146484375,261.71914672851557
850.454833984375,904.7391967773438,-343.75054931640625,937.50146484375,261.71914672851557
852.0997924804688,914.6090698242188,-355.46929931640625,925.78271484375,257.81289672851557
850.454833984375,922.833984375,-351.56304931640625,941.40771484375,257.81289672851557
850.454833984375,922.833984375,-351.56304931640625,937.50146484375,253.9066467285156
850.454833984375,922.833984375,-347.65679931640625,925.78271484375,253.9066467285156
855.3897705078125,908.0291748046876,-347.65679931640625,925.78271484375,253.9066467285156
855.3897705078125,917.8990478515624,-351.56304931640625,929.68896484375,265.6254272460937
857.0347290039062,912.964111328125,-359.37554931640625,941.40771484375,257.81289672851557
858.6797485351562,916.2540283203124,-359.37554931640625,941.40771484375,257.81289672851557
852.0997924804688,911.319091796875,-347.65679931640625,941.40771484375,261.71914672851557
850.454833984375,909.6741333007812,-347.65679931640625,941.40771484375,261.71914672851557
853.7448120117188,909.6741333007812,-347.65679931640625,941.40771484375,257.81289672851557
853.7448120117188,909.6741333007812,-347.65679931640625,937.50146484375,253.9066467285156
853.7448120117188,909.6741333007812,-347.65679931640625,925.78271484375,253.9066467285156
861.9697265625,898.1592407226562,-347.65679931640625,925.78271484375,253.9066467285156
860.32470703125,912.964111328125,-351.56304931640625,945.31396484375,253.9066467285156
858.6797485351562,921.18896484375,-347.65679931640625,941.40771484375,250.0003967285156
858.6797485351562,921.18896484375,-343.75054931640625,933.59521484375,253.9066467285156
850.454833984375,911.319091796875,-343.75054931640625,933.59521484375,253.9066467285156
850.454833984375,921.18896484375,-347.65679931640625,933.59521484375,253.9066467285156
855.3897705078125,914.6090698242188,-355.46929931640625,937.50146484375,250.0003967285156
855.3897705078125,914.6090698242188,-355.46929931640625,937.50146484375,242.18788146972656
855.3897705078125,914.6090698242188,-347.65679931640625,937.50146484375,246.09413146972656
853.7448120117188,924.4789428710938,-351.56304931640625,937.50146484375,242.18788146972656
845.5198974609375,904.7391967773438,-347.65679931640625,941.40771484375,242.18788146972656
845.5198974609375,904.7391967773438,-343.75054931640625,941.40771484375,242.18788146972656
853.7448120117188,912.964111328125,-347.65679931640625,949.22021484375,238.2816162109375
850.454833984375,914.6090698242188,-339.8442687988281,941.40771484375,242.18788146972656
850.454833984375,914.6090698242188,-343.75054931640625,941.40771484375,238.2816162109375
850.454833984375,912.964111328125,-343.75054931640625,941.40771484375,238.2816162109375
848.8098754882812,909.6741333007812,-343.75054931640625,941.40771484375,238.2816162109375
848.8098754882812,908.0291748046876,-335.9380187988281,941.40771484375,238.2816162109375
848.8098754882812,916.2540283203124,-339.8442687988281,945.31396484375,238.2816162109375
848.8098754882812,916.2540283203124,-335.9380187988281,945.31396484375,242.18788146972656
848.8098754882812,916.2540283203124,-332.0317687988281,945.31396484375,238.2816162109375
847.1648559570312,891.579345703125,-332.0317687988281,945.31396484375,238.2816162109375
850.454833984375,909.6741333007812,-324.2192687988281,945.31396484375,246.09413146972656
848.8098754882812,908.0291748046876,-324.2192687988281,945.31396484375,238.2816162109375
848.8098754882812,908.0291748046876,-328.1255187988281,941.40771484375,242.18788146972656
853.7448120117188,911.319091796875,-328.1255187988281,941.40771484375,242.18788146972656
853.7448120117188,908.0291748046876,-328.1255187988281,945.31396484375,242.18788146972656
853.7448120117188,916.2540283203124,-335.9380187988281,949.22021484375,238.2816162109375
852.0997924804688,909.6741333007812,-339.8442687988281,945.31396484375,242.18788146972656
855.3897705078125,912.964111328125,-339.8442687988281,945.31396484375,242.18788146972656
845.5198974609375,898.1592407226562,-339.8442687988281,945.31396484375,238.2816162109375
845.5198974609375,898.1592407226562,-335.9380187988281,945.31396484375,242.18788146972656
842.2299194335938,901.44921875,-335.9380187988281,945.31396484375,242.18788146972656
845.5198974609375,901.44921875,-339.8442687988281,945.31396484375,242.18788146972656
850.454833984375,903.09423828125,-339.8442687988281,941.40771484375,242.18788146972656
850.454833984375,896.5142822265625,-339.8442687988281,941.40771484375,242.18788146972656
855.3897705078125,912.964111328125,-351.56304931640625,949.22021484375,230.4691162109375
852.0997924804688,911.319091796875,-339.8442687988281,945.31396484375,238.2816162109375
853.7448120117188,903.09423828125,-335.9380187988281,941.40771484375,242.18788146972656
843.8749389648438,875.1295166015625,-339.8442687988281,945.31396484375,242.18788146972656
852.0997924804688,909.6741333007812,-335.9380187988281,945.31396484375,242.18788146972656
852.0997924804688,909.6741333007812,-332.0317687988281,953.12646484375,242.18788146972656
858.6797485351562,909.6741333007812,-332.0317687988281,953.12646484375,242.18788146972656
852.0997924804688,904.7391967773438,-335.9380187988281,937.50146484375,242.18788146972656
852.0997924804688,904.7391967773438,-328.1255187988281,945.31396484375,234.3753662109375
847.1648559570312,917.8990478515624,-328.1255187988281,953.12646484375,238.2816162109375
847.1648559570312,917.8990478515624,-316.40673828125,957.0327758789062,238.2816162109375
847.1648559570312,917.8990478515624,-308.59423828125,953.12646484375,242.18788146972656
848.8098754882812,921.18896484375,-308.59423828125,953.12646484375,238.2816162109375
850.454833984375,904.7391967773438,-324.2192687988281,949.22021484375,230.4691162109375
853.7448120117188,926.1239624023438,-324.2192687988281,949.22021484375,230.4691162109375
850.454833984375,911.319091796875,-324.2192687988281,957.0327758789062,230.4691162109375
850.454833984375,901.44921875,-320.31298828125,945.31396484375,238.2816162109375
852.0997924804688,906.3841552734376,-335.9380187988281,949.22021484375,242.18788146972656
847.1648559570312,899.8042602539062,-339.8442687988281,949.22021484375,242.18788146972656
852.0997924804688,908.0291748046876,-332.0317687988281,945.31396484375,246.09413146972656
850.454833984375,908.0291748046876,-332.0317687988281,945.31396484375,246.09413146972656
857.0347290039062,896.5142822265625,-324.2192687988281,945.31396484375,238.2816162109375
853.7448120117188,889.9343872070312,-320.31298828125,945.31396484375,242.18788146972656
857.0347290039062,898.1592407226562,-320.31298828125,945.31396484375,242.18788146972656
858.6797485351562,903.09423828125,-324.2192687988281,949.22021484375,234.3753662109375
840.5849609375,880.064453125,-324.2192687988281,949.22021484375,234.3753662109375
848.8098754882812,884.9994506835938,-332.0317687988281,945.31396484375,238.2816162109375
853.7448120117188,880.064453125,-339.8442687988281,949.22021484375,234.3753662109375
852.0997924804688,883.3544311523438,-332.0317687988281,945.31396484375,238.2816162109375
840.5849609375,898.1592407226562,-328.1255187988281,949.22021484375,242.18788146972656
840.5849609375,898.1592407226562,-328.1255187988281,945.31396484375,238.2816162109375
843.8749389648438,878.4194946289062,-328.1255187988281,945.31396484375,238.2816162109375
857.0347290039062,881.70947265625,-332.0317687988281,949.22021484375,238.2816162109375
857.0347290039062,881.70947265625,-328.1255187988281,945.31396484375,238.2816162109375
852.0997924804688,881.70947265625,-328.1255187988281,945.31396484375,238.2816162109375
843.8749389648438,863.6146850585938,-324.2192687988281,949.22021484375,238.2816162109375
853.7448120117188,873.4845581054688,-324.2192687988281,949.22021484375,238.2816162109375
850.454833984375,876.7745361328125,-328.1255187988281,953.12646484375,234.3753662109375
850.454833984375,876.7745361328125,-332.0317687988281,953.12646484375,230.4691162109375
850.454833984375,876.7745361328125,-324.2192687988281,941.40771484375,238.2816162109375
847.1648559570312,881.70947265625,-324.2192687988281,941.40771484375,238.2816162109375
845.5198974609375,881.70947265625,-324.2192687988281,949.22021484375,238.2816162109375
845.5198974609375,881.70947265625,-324.2192687988281,949.22021484375,242.18788146972656
847.1648559570312,870.194580078125,-324.2192687988281,949.22021484375,242.18788146972656
858.6797485351562,873.4845581054688,-324.2192687988281,949.22021484375,242.18788146972656
861.9697265625,884.9994506835938,-328.1255187988281,949.22021484375,242.18788146972656
861.9697265625,884.9994506835938,-324.2192687988281,949.22021484375,242.18788146972656
860.32470703125,894.8693237304688,-324.2192687988281,949.22021484375,238.2816162109375
860.32470703125,884.9994506835938,-324.2192687988281,945.31396484375,238.2816162109375
852.0997924804688,886.6444091796875,-332.0317687988281,953.12646484375,238.2816162109375
852.0997924804688,886.6444091796875,-328.1255187988281,949.22021484375,238.2816162109375
843.8749389648438,876.7745361328125,-328.1255187988281,949.22021484375,238.2816162109375
850.454833984375,870.194580078125,-324.2192687988281,949.22021484375,242.18788146972656
853.7448120117188,881.70947265625,-324.2192687988281,949.22021484375,246.09413146972656
853.7448120117188,881.70947265625,-332.0317687988281,953.12646484375,238.2816162109375
847.1648559570312,875.1295166015625,-332.0317687988281,953.12646484375,238.2816162109375
848.8098754882812,870.194580078125,-324.2192687988281,949.22021484375,246.09413146972656
848.8098754882812,870.194580078125,-328.1255187988281,957.0327758789062,242.18788146972656
850.454833984375,873.4845581054688,-324.2192687988281,949.22021484375,246.09413146972656
847.1648559570312,866.9046630859375,-324.2192687988281,945.31396484375,242.18788146972656
843.8749389648438,880.064453125,-328.1255187988281,949.22021484375,242.18788146972656
848.8098754882812,866.9046630859375,-324.2192687988281,945.31396484375,242.18788146972656
848.8098754882812,866.9046630859375,-324.2192687988281,949.22021484375,238.2816162109375
843.8749389648438,876.7745361328125,-328.1255187988281,945.31396484375,242.18788146972656
843.8749389648438,876.7745361328125,-332.0317687988281,945.31396484375,238.2816162109375
852.0997924804688,880.064453125,-332.0317687988281,945.31396484375,238.2816162109375
852.0997924804688,880.064453125,-328.1255187988281,949.22021484375,242.18788146972656
852.0997924804688,880.064453125,-328.1255187988281,949.22021484375,238.2816162109375
842.2299194335938,870.194580078125,-324.2192687988281,945.31396484375,238.2816162109375
848.8098754882812,876.7745361328125,-324.2192687988281,953.12646484375,242.18788146972656
848.8098754882812,857.0347290039062,-324.2192687988281,941.40771484375,246.09413146972656
848.8098754882812,857.0347290039062,-324.2192687988281,945.31396484375,246.09413146972656
848.8098754882812,857.0347290039062,-328.1255187988281,953.12646484375,238.2816162109375
848.8098754882812,861.9697265625,-324.2192687988281,949.22021484375,242.18788146972656
852.0997924804688,871.839599609375,-328.1255187988281,941.40771484375,242.18788146972656
852.0997924804688,866.9046630859375,-332.0317687988281,949.22021484375,242.18788146972656
855.3897705078125,884.9994506835938,-324.2192687988281,949.22021484375,242.18788146972656
853.7448120117188,876.7745361328125,-332.0317687988281,949.22021484375,238.2816162109375
853.7448120117188,881.70947265625,-332.0317687988281,945.31396484375,238.2816162109375
850.454833984375,870.194580078125,-328.1255187988281,953.12646484375,242.18788146972656
850.454833984375,873.4845581054688,-328.1255187988281,953.12646484375,246.09413146972656
850.454833984375,873.4845581054688,-324.2192687988281,945.31396484375,242.18788146972656
852.0997924804688,873.4845581054688,-328.1255187988281,945.31396484375,242.18788146972656
850.454833984375,866.9046630859375,-328.1255187988281,945.31396484375,242.18788146972656
850.454833984375,866.9046630859375,-332.0317687988281,949.22021484375,242.18788146972656
845.5198974609375,866.9046630859375,-332.0317687988281,949.22021484375,242.18788146972656
850.454833984375,871.839599609375,-332.0317687988281,949.22021484375,242.18788146972656
848.8098754882812,863.6146850585938,-328.1255187988281,949.22021484375,242.18788146972656
853.7448120117188,873.4845581054688,-332.0317687988281,949.22021484375,242.18788146972656
852.0997924804688,868.5496215820312,-328.1255187988281,949.22021484375,242.18788146972656
848.8098754882812,871.839599609375,-324.2192687988281,945.31396484375,246.09413146972656
857.0347290039062,878.4194946289062,-324.2192687988281,941.40771484375,242.18788146972656
850.454833984375,855.3897705078125,-328.1255187988281,953.12646484375,242.18788146972656
850.454833984375,855.3897705078125,-328.1255187988281,945.31396484375,242.18788146972656
850.454833984375,855.3897705078125,-324.2192687988281,941.40771484375,246.09413146972656
845.5198974609375,863.6146850585938,-324.2192687988281,941.40771484375,246.09413146972656
850.454833984375,871.839599609375,-332.0317687988281,945.31396484375,242.18788146972656
845.5198974609375,871.839599609375,-335.9380187988281,953.12646484375,242.18788146972656
848.8098754882812,876.7745361328125,-332.0317687988281,949.22021484375,242.18788146972656
853.7448120117188,883.3544311523438,-328.1255187988281,949.22021484375,246.09413146972656
853.7448120117188,883.3544311523438,-328.1255187988281,945.31396484375,246.09413146972656
845.5198974609375,870.194580078125,-335.9380187988281,945.31396484375,246.09413146972656
843.8749389648438,865.2596435546875,-335.9380187988281,945.31396484375,246.09413146972656
852.0997924804688,863.6146850585938,-324.2192687988281,945.31396484375,242.18788146972656
852.0997924804688,863.6146850585938,-320.31298828125,945.31396484375,246.09413146972656
847.1648559570312,858.6797485351562,-320.31298828125,945.31396484375,246.09413146972656
843.8749389648438,857.0347290039062,-328.1255187988281,953.12646484375,238.2816162109375
843.8749389648438,857.0347290039062,-332.0317687988281,949.22021484375,238.2816162109375
847.1648559570312,863.6146850585938,-324.2192687988281,937.50146484375,242.18788146972656
847.1648559570312,863.6146850585938,-332.0317687988281,953.12646484375,242.18788146972656
847.1648559570312,863.6146850585938,-324.2192687988281,945.31396484375,246.09413146972656
845.5198974609375,861.9697265625,-324.2192687988281,945.31396484375,246.09413146972656
852.0997924804688,865.2596435546875,-335.9380187988281,945.31396484375,242.18788146972656
847.1648559570312,865.2596435546875,-335.9380187988281,945.31396484375,242.18788146972656
842.2299194335938,857.0347290039062,-328.1255187988281,945.31396484375,238.2816162109375
842.2299194335938,855.3897705078125,-328.1255187988281,945.31396484375,238.2816162109375
838.9400024414062,868.5496215820312,-328.1255187988281,945.31396484375,242.18788146972656
838.9400024414062,868.5496215820312,-332.0317687988281,945.31396484375,242.18788146972656
847.1648559570312,866.9046630859375,-335.9380187988281,945.31396484375,242.18788146972656
847.1648559570312,860.32470703125,-332.0317687988281,945.31396484375,242.18788146972656
847.1648559570312,860.32470703125,-324.2192687988281,945.31396484375,246.09413146972656
847.1648559570312,866.9046630859375,-320.31298828125,949.22021484375,246.09413146972656
853.7448120117188,875.1295166015625,-324.2192687988281,949.22021484375,250.0003967285156
853.7448120117188,875.1295166015625,-328.1255187988281,953.12646484375,246.09413146972656
850.454833984375,860.32470703125,-328.1255187988281,953.12646484375,246.09413146972656
853.7448120117188,865.2596435546875,-324.2192687988281,953.12646484375,246.09413146972656
853.7448120117188,865.2596435546875,-320.31298828125,945.31396484375,246.09413146972656
853.7448120117188,865.2596435546875,-324.2192687988281,945.31396484375,246.09413146972656
853.7448120117188,865.2596435546875,-335.9380187988281,953.12646484375,242.18788146972656
848.8098754882812,866.9046630859375,-328.1255187988281,949.22021484375,242.18788146972656
848.8098754882812,866.9046630859375,-332.0317687988281,949.22021484375,246.09413146972656
850.454833984375,865.2596435546875,-332.0317687988281,949.22021484375,246.09413146972656
853.7448120117188,860.32470703125,-332.0317687988281,945.31396484375,246.09413146972656
850.454833984375,875.1295166015625,-328.1255187988281,949.22021484375,242.18788146972656
847.1648559570312,861.9697265625,-335.9380187988281,953.12646484375,238.2816162109375
847.1648559570312,861.9697265625,-332.0317687988281,941.40771484375,250.0003967285156
848.8098754882812,870.194580078125,-328.1255187988281,945.31396484375,250.0003967285156
845.5198974609375,868.5496215820312,-328.1255187988281,945.31396484375,246.09413146972656
845.5198974609375,870.194580078125,-328.1255187988281,941.40771484375,242.18788146972656
845.5198974609375,861.9697265625,-335.9380187988281,949.22021484375,242.18788146972656
850.454833984375,881.70947265625,-332.0317687988281,949.22021484375,242.18788146972656
847.1648559570312,858.6797485351562,-332.0317687988281,945.31396484375,242.18788146972656
847.1648559570312,858.6797485351562,-332.0317687988281,941.40771484375,242.18788146972656
842.2299194335938,848.8098754882812,-324.2192687988281,949.22021484375,246.09413146972656
842.2299194335938,848.8098754882812,-320.31298828125,949.22021484375,246.09413146972656
848.8098754882812,857.0347290039062,-320.31298828125,949.22021484375,246.09413146972656
845.5198974609375,857.0347290039062,-328.1255187988281,945.31396484375,242.18788146972656
847.1648559570312,860.32470703125,-328.1255187988281,945.31396484375,242.18788146972656
853.7448120117188,866.9046630859375,-328.1255187988281,949.22021484375,246.09413146972656
848.8098754882812,876.7745361328125,-328.1255187988281,945.31396484375,246.09413146972656
847.1648559570312,878.4194946289062,-332.0317687988281,945.31396484375,246.09413146972656
847.1648559570312,878.4194946289062,-335.9380187988281,941.40771484375,242.18788146972656
848.8098754882812,875.1295166015625,-335.9380187988281,941.40771484375,242.18788146972656
847.1648559570312,876.7745361328125,-332.0317687988281,945.31396484375,246.09413146972656
847.1648559570312,868.5496215820312,-332.0317687988281,945.31396484375,246.09413146972656
842.2299194335938,865.2596435546875,-328.1255187988281,945.31396484375,246.09413146972656
848.8098754882812,876.7745361328125,-328.1255187988281,945.31396484375,242.18788146972656
843.8749389648438,870.194580078125,-328.1255187988281,945.31396484375,246.09413146972656
848.8098754882812,875.1295166015625,-324.2192687988281,949.22021484375,246.09413146972656
848.8098754882812,875.1295166015625,-324.2192687988281,945.31396484375,242.18788146972656
845.5198974609375,870.194580078125,-324.2192687988281,945.31396484375,242.18788146972656
852.0997924804688,863.6146850585938,-332.0317687988281,949.22021484375,242.18788146972656
852.0997924804688,865.2596435546875,-335.9380187988281,953.12646484375,242.18788146972656
848.8098754882812,858.6797485351562,-335.9380187988281,949.22021484375,246.09413146972656
847.1648559570312,865.2596435546875,-332.0317687988281,941.40771484375,246.09413146972656
847.1648559570312,865.2596435546875,-332.0317687988281,945.31396484375,246.09413146972656
848.8098754882812,868.5496215820312,-332.0317687988281,945.31396484375,246.09413146972656
843.8749389648438,852.0997924804688,-335.9380187988281,945.31396484375,242.18788146972656
843.8749389648438,852.0997924804688,-332.0317687988281,945.31396484375,246.09413146972656
838.9400024414062,865.2596435546875,-324.2192687988281,949.22021484375,242.18788146972656
843.8749389648438,870.194580078125,-328.1255187988281,949.22021484375,242.18788146972656
845.5198974609375,861.9697265625,-332.0317687988281,949.22021484375,242.18788146972656
845.5198974609375,838.9400024414062,-328.1255187988281,937.50146484375,246.09413146972656
845.5198974609375,838.9400024414062,-328.1255187988281,953.12646484375,246.09413146972656
850.454833984375,852.0997924804688,-328.1255187988281,953.12646484375,246.09413146972656
853.7448120117188,861.9697265625,-332.0317687988281,945.31396484375,246.09413146972656
843.8749389648438,853.7448120117188,-332.0317687988281,949.22021484375,246.09413146972656
843.8749389648438,853.7448120117188,-332.0317687988281,945.31396484375,242.18788146972656
847.1648559570312,865.2596435546875,-332.0317687988281,945.31396484375,242.18788146972656
840.5849609375,850.454833984375,-324.2192687988281,949.22021484375,242.18788146972656
840.5849609375,850.454833984375,-324.2192687988281,945.31396484375,242.18788146972656
840.5849609375,845.5198974609375,-324.2192687988281,945.31396484375,242.18788146972656
840.5849609375,845.5198974609375,-332.0317687988281,945.31396484375,242.18788146972656
840.5849609375,845.5198974609375,-335.9380187988281,945.31396484375,242.18788146972656
848.8098754882812,866.9046630859375,-335.9380187988281,945.31396484375,242.18788146972656
845.5198974609375,863.6146850585938,-328.1255187988281,945.31396484375,246.09413146972656
845.5198974609375,863.6146850585938,-324.2192687988281,945.31396484375,246.09413146972656
847.1648559570312,861.9697265625,-320.31298828125,945.31396484375,250.0003967285156
847.1648559570312,861.9697265625,-328.1255187988281,953.12646484375,246.09413146972656
848.8098754882812,858.6797485351562,-335.9380187988281,949.22021484375,238.2816162109375
842.2299194335938,861.9697265625,-324.2192687988281,945.31396484375,246.09413146972656
842.2299194335938,861.9697265625,-332.0317687988281,957.0327758789062,246.09413146972656
848.8098754882812,860.32470703125,-332.0317687988281,957.0327758789062,246.09413146972656
842.2299194335938,853.7448120117188,-328.1255187988281,945.31396484375,242.18788146972656
847.1648559570312,863.6146850585938,-335.9380187988281,945.31396484375,242.18788146972656
847.1648559570312,863.6146850585938,-335.9380187988281,949.22021484375,242.18788146972656
847.1648559570312,863.6146850585938,-332.0317687988281,945.31396484375,246.09413146972656
845.5198974609375,863.6146850585938,-332.0317687988281,945.31396484375,246.09413146972656
847.1648559570312,861.9697265625,-332.0317687988281,949.22021484375,242.18788146972656
848.8098754882812,865.2596435546875,-332.0317687988281,949.22021484375,246.09413146972656
843.8749389648438,858.6797485351562,-328.1255187988281,945.31396484375,250.0003967285156
845.5198974609375,871.839599609375,-328.1255187988281,949.22021484375,250.0003967285156
845.5198974609375,871.839599609375,-335.9380187988281,949.22021484375,242.18788146972656
843.8749389648438,858.6797485351562,-328.1255187988281,945.31396484375,242.18788146972656
843.8749389648438,858.6797485351562,-324.2192687988281,953.12646484375,246.09413146972656
843.8749389648438,866.9046630859375,-324.2192687988281,953.12646484375,246.09413146972656
840.5849609375,865.2596435546875,-320.31298828125,945.31396484375,246.09413146972656
840.5849609375,865.2596435546875,-324.2192687988281,945.31396484375,242.18788146972656
843.8749389648438,868.5496215820312,-324.2192687988281,945.31396484375,242.18788146972656
848.8098754882812,875.1295166015625,-324.2192687988281,941.40771484375,246.09413146972656
855.3897705078125,876.7745361328125,-335.9380187988281,949.22021484375,246.09413146972656
855.3897705078125,876.7745361328125,-332.0317687988281,949.22021484375,246.09413146972656
855.3897705078125,876.7745361328125,-328.1255187988281,945.31396484375,246.09413146972656
857.0347290039062,858.6797485351562,-328.1255187988281,945.31396484375,246.09413146972656
847.1648559570312,861.9697265625,-335.9380187988281,945.31396484375,246.09413146972656
852.0997924804688,861.9697265625,-328.1255187988281,945.31396484375,246.09413146972656
848.8098754882812,850.454833984375,-324.2192687988281,949.22021484375,250.0003967285156
848.8098754882812,850.454833984375,-332.0317687988281,953.12646484375,242.18788146972656
845.5198974609375,865.2596435546875,-332.0317687988281,953.12646484375,242.18788146972656
845.5198974609375,865.2596435546875,-320.31298828125,937.50146484375,250.0003967285156
845.5198974609375,865.2596435546875,-324.2192687988281,949.22021484375,246.09413146972656
845.5198974609375,865.2596435546875,-328.1255187988281,949.22021484375,242.18788146972656
845.5198974609375,855.3897705078125,-324.2192687988281,949.22021484375,246.09413146972656
845.5198974609375,855.3897705078125,-324.2192687988281,945.31396484375,246.09413146972656
847.1648559570312,847.1648559570312,-332.0317687988281,949.22021484375,246.09413146972656
847.1648559570312,847.1648559570312,-335.9380187988281,945.31396484375,246.09413146972656
847.1648559570312,855.3897705078125,-332.0317687988281,945.31396484375,246.09413146972656
840.5849609375,848.8098754882812,-328.1255187988281,945.31396484375,250.0003967285156
843.8749389648438,865.2596435546875,-328.1255187988281,949.22021484375,246.09413146972656
842.2299194335938,880.064453125,-324.2192687988281,945.31396484375,246.09413146972656
843.8749389648438,863.6146850585938,-316.40673828125,941.40771484375,246.09413146972656
838.9400024414062,861.9697265625,-324.2192687988281,941.40771484375,242.18788146972656
850.454833984375,848.8098754882812,-328.1255187988281,945.31396484375,246.09413146972656
860.32470703125,855.3897705078125,-328.1255187988281,945.31396484375,246.09413146972656
852.0997924804688,865.2596435546875,-328.1255187988281,945.31396484375,246.09413146972656
847.1648559570312,853.7448120117188,-335.9380187988281,945.31396484375,238.2816162109375
852.0997924804688,865.2596435546875,-324.2192687988281,937.50146484375,246.09413146972656
852.0997924804688,865.2596435546875,-328.1255187988281,949.22021484375,246.09413146972656
852.0997924804688,865.2596435546875,-328.1255187988281,945.31396484375,250.0003967285156
848.8098754882812,858.6797485351562,-328.1255187988281,945.31396484375,250.0003967285156
845.5198974609375,850.454833984375,-332.0317687988281,941.40771484375,242.18788146972656
857.0347290039062,866.9046630859375,-332.0317687988281,941.40771484375,242.18788146972656
855.3897705078125,858.6797485351562,-335.9380187988281,945.31396484375,250.0003967285156
855.3897705078125,858.6797485351562,-332.0317687988281,945.31396484375,250.0003967285156
848.8098754882812,857.0347290039062,-332.0317687988281,945.31396484375,250.0003967285156
852.0997924804688,861.9697265625,-324.2192687988281,945.31396484375,250.0003967285156
850.454833984375,852.0997924804688,-335.9380187988281,941.40771484375,250.0003967285156
845.5198974609375,866.9046630859375,-328.1255187988281,945.31396484375,250.0003967285156
850.454833984375,870.194580078125,-324.2192687988281,941.40771484375,253.9066467285156
853.7448120117188,865.2596435546875,-332.0317687988281,945.31396484375,250.0003967285156
852.0997924804688,871.839599609375,-320.31298828125,941.40771484375,253.9066467285156
852.0997924804688,865.2596435546875,-332.0317687988281,945.31396484375,246.09413146972656
850.454833984375,858.6797485351562,-324.2192687988281,945.31396484375,250.0003967285156
852.0997924804688,858.6797485351562,-328.1255187988281,945.31396484375,253.9066467285156
845.5198974609375,868.5496215820312,-328.1255187988281,945.31396484375,253.9066467285156
852.0997924804688,860.32470703125,-332.0317687988281,945.31396484375,253.9066467285156
853.7448120117188,870.194580078125,-328.1255187988281,941.40771484375,257.81289672851557
843.8749389648438,860.32470703125,-324.2192687988281,945.31396484375,261.71914672851557
843.8749389648438,860.32470703125,-324.2192687988281,949.22021484375,261.71914672851557
843.8749389648438,860.32470703125,-324.2192687988281,949.22021484375,265.6254272460937
848.8098754882812,861.9697265625,-324.2192687988281,949.22021484375,265.6254272460937
852.0997924804688,860.32470703125,-320.31298828125,937.50146484375,265.6254272460937
850.454833984375,858.6797485351562,-320.31298828125,945.31396484375,261.71914672851557
847.1648559570312,848.8098754882812,-320.31298828125,945.31396484375,261.71914672851557
852.0997924804688,866.9046630859375,-324.2192687988281,945.31396484375,250.0003967285156
852.0997924804688,866.9046630859375,-332.0317687988281,945.31396484375,246.09413146972656
852.0997924804688,875.1295166015625,-332.0317687988281,945.31396484375,246.09413146972656
852.0997924804688,863.6146850585938,-320.31298828125,941.40771484375,250.0003967285156
852.0997924804688,863.6146850585938,-320.31298828125,949.22021484375,250.0003967285156
855.3897705078125,855.3897705078125,-320.31298828125,949.22021484375,250.0003967285156
853.7448120117188,838.9400024414062,-328.1255187988281,941.40771484375,242.18788146972656
853.7448120117188,838.9400024414062,-332.0317687988281,941.40771484375,242.18788146972656
853.7448120117188,838.9400024414062,-332.0317687988281,945.31396484375,242.18788146972656
853.7448120117188,852.0997924804688,-328.1255187988281,945.31396484375,242.18788146972656
853.7448120117188,843.8749389648438,-324.2192687988281,949.22021484375,246.09413146972656
853.7448120117188,843.8749389648438,-328.1255187988281,945.31396484375,242.18788146972656
848.8098754882812,852.0997924804688,-328.1255187988281,945.31396484375,242.18788146972656
853.7448120117188,840.5849609375,-324.2192687988281,945.31396484375,246.09413146972656
853.7448120117188,840.5849609375,-324.2192687988281,937.50146484375,246.09413146972656
850.454833984375,853.7448120117188,-324.2192687988281,937.50146484375,246.09413146972656
850.454833984375,853.7448120117188,-332.0317687988281,953.12646484375,242.18788146972656
847.1648559570312,830.715087890625,-324.2192687988281,949.22021484375,246.09413146972656
853.7448120117188,838.9400024414062,-324.2192687988281,949.22021484375,246.09413146972656
852.0997924804688,838.9400024414062,-328.1255187988281,945.31396484375,246.09413146972656
850.454833984375,855.3897705078125,-332.0317687988281,949.22021484375,250.0003967285156
852.0997924804688,861.9697265625,-324.2192687988281,949.22021484375,253.9066467285156
848.8098754882812,873.4845581054688,-328.1255187988281,945.31396484375,250.0003967285156
853.7448120117188,871.839599609375,-328.1255187988281,945.31396484375,246.09413146972656
845.5198974609375,857.0347290039062,-328.1255187988281,945.31396484375,246.09413146972656
843.8749389648438,852.0997924804688,-328.1255187988281,945.31396484375,246.09413146972656
847.1648559570312,857.0347290039062,-324.2192687988281,949.22021484375,250.0003967285156
845.5198974609375,848.8098754882812,-332.0317687988281,953.12646484375,246.09413146972656
845.5198974609375,848.8098754882812,-332.0317687988281,945.31396484375,246.09413146972656
845.5198974609375,850.454833984375,-332.0317687988281,945.31396484375,246.09413146972656
852.0997924804688,865.2596435546875,-324.2192687988281,949.22021484375,253.9066467285156
852.0997924804688,865.2596435546875,-324.2192687988281,945.31396484375,253.9066467285156
855.3897705078125,853.7448120117188,-328.1255187988281,945.31396484375,250.0003967285156
855.3897705078125,853.7448120117188,-332.0317687988281,945.31396484375,250.0003967285156
850.454833984375,858.6797485351562,-328.1255187988281,945.31396484375,250.0003967285156
843.8749389648438,857.0347290039062,-324.2192687988281,945.31396484375,253.9066467285156
843.8749389648438,857.0347290039062,-324.2192687988281,949.22021484375,253.9066467285156
843.8749389648438,857.0347290039062,-324.2192687988281,945.31396484375,250.0003967285156
845.5198974609375,852.0997924804688,-324.2192687988281,945.31396484375,250.0003967285156
853.7448120117188,842.2299194335938,-328.1255187988281,945.31396484375,253.9066467285156
853.7448120117188,842.2299194335938,-332.0317687988281,945.31396484375,253.9066467285156
845.5198974609375,838.9400024414062,-332.0317687988281,941.40771484375,253.9066467285156
848.8098754882812,845.5198974609375,-328.1255187988281,945.31396484375,253.9066467285156
848.8098754882812,845.5198974609375,-324.2192687988281,945.31396484375,253.9066467285156
845.5198974609375,848.8098754882812,-324.2192687988281,945.31396484375,253.9066467285156
852.0997924804688,845.5198974609375,-332.0317687988281,945.31396484375,246.09413146972656
848.8098754882812,850.454833984375,-332.0317687988281,945.31396484375,246.09413146972656
852.0997924804688,848.8098754882812,-328.1255187988281,949.22021484375,250.0003967285156
848.8098754882812,850.454833984375,-324.2192687988281,945.31396484375,253.9066467285156
847.1648559570312,838.9400024414062,-324.2192687988281,941.40771484375,253.9066467285156
848.8098754882812,842.2299194335938,-332.0317687988281,941.40771484375,250.0003967285156
848.8098754882812,853.7448120117188,-339.8442687988281,945.31396484375,250.0003967285156
848.8098754882812,853.7448120117188,-339.8442687988281,945.31396484375,246.09413146972656
850.454833984375,860.32470703125,-332.0317687988281,941.40771484375,250.0003967285156
848.8098754882812,845.5198974609375,-324.2192687988281,949.22021484375,253.9066467285156
850.454833984375,858.6797485351562,-328.1255187988281,941.40771484375,253.9066467285156
850.454833984375,858.6797485351562,-332.0317687988281,941.40771484375,250.0003967285156
852.0997924804688,858.6797485351562,-332.0317687988281,941.40771484375,250.0003967285156
857.0347290039062,860.32470703125,-328.1255187988281,949.22021484375,253.9066467285156
847.1648559570312,843.8749389648438,-320.31298828125,941.40771484375,257.81289672851557
847.1648559570312,843.8749389648438,-328.1255187988281,949.22021484375,250.0003967285156
852.0997924804688,843.8749389648438,-328.1255187988281,945.31396484375,250.0003967285156
852.0997924804688,843.8749389648438,-320.31298828125,941.40771484375,257.81289672851557
852.0997924804688,843.8749389648438,-324.2192687988281,953.12646484375,253.9066467285156
852.0997924804688,843.8749389648438,-324.2192687988281,949.22021484375,257.81289672851557
850.454833984375,847.1648559570312,-324.2192687988281,949.22021484375,257.81289672851557
853.7448120117188,860.32470703125,-328.1255187988281,941.40771484375,253.9066467285156
848.8098754882812,855.3897705078125,-332.0317687988281,949.22021484375,253.9066467285156
850.454833984375,870.194580078125,-328.1255187988281,941.40771484375,250.0003967285156
848.8098754882812,860.32470703125,-328.1255187988281,949.22021484375,253.9066467285156
848.8098754882812,860.32470703125,-324.2192687988281,945.31396484375,253.9066467285156
848.8098754882812,861.9697265625,-324.2192687988281,941.40771484375,253.9066467285156
848.8098754882812,861.9697265625,-328.1255187988281,945.31396484375,253.9066467285156
848.8098754882812,861.9697265625,-328.1255187988281,945.31396484375,250.0003967285156
852.0997924804688,858.6797485351562,-324.2192687988281,945.31396484375,253.9066467285156
850.454833984375,857.0347290039062,-324.2192687988281,933.59521484375,257.81289672851557
843.8749389648438,850.454833984375,-324.2192687988281,949.22021484375,257.81289672851557
845.5198974609375,865.2596435546875,-324.2192687988281,949.22021484375,257.81289672851557
852.0997924804688,863.6146850585938,-324.2192687988281,949.22021484375,257.81289672851557
843.8749389648438,866.9046630859375,-324.2192687988281,941.40771484375,253.9066467285156
842.2299194335938,865.2596435546875,-328.1255187988281,941.40771484375,253.9066467285156
842.2299194335938,865.2596435546875,-328.1255187988281,949.22021484375,253.9066467285156
842.2299194335938,857.0347290039062,-328.1255187988281,949.22021484375,253.9066467285156
848.8098754882812,852.0997924804688,-320.31298828125,945.31396484375,253.9066467285156
848.8098754882812,852.0997924804688,-328.1255187988281,941.40771484375,253.9066467285156
848.8098754882812,855.3897705078125,-328.1255187988281,941.40771484375,253.9066467285156
853.7448120117188,848.8098754882812,-328.1255187988281,945.31396484375,257.81289672851557
853.7448120117188,848.8098754882812,-324.2192687988281,945.31396484375,261.71914672851557
845.5198974609375,843.8749389648438,-324.2192687988281,945.31396484375,261.71914672851557
850.454833984375,847.1648559570312,-324.2192687988281,945.31396484375,261.71914672851557
847.1648559570312,843.8749389648438,-328.1255187988281,945.31396484375,257.81289672851557
847.1648559570312,843.8749389648438,-335.9380187988281,949.22021484375,253.9066467285156
852.0997924804688,870.194580078125,-324.2192687988281,945.31396484375,261.71914672851557
852.0997924804688,870.194580078125,-328.1255187988281,953.12646484375,257.81289672851557
850.454833984375,870.194580078125,-320.31298828125,945.31396484375,261.71914672851557
848.8098754882812,850.454833984375,-320.31298828125,941.40771484375,257.81289672851557
848.8098754882812,850.454833984375,-324.2192687988281,941.40771484375,253.9066467285156
847.1648559570312,848.8098754882812,-324.2192687988281,941.40771484375,253.9066467285156
843.8749389648438,848.8098754882812,-316.40673828125,945.31396484375,257.81289672851557
852.0997924804688,848.8098754882812,-316.40673828125,945.31396484375,257.81289672851557
852.0997924804688,848.8098754882812,-324.2192687988281,941.40771484375,253.9066467285156
853.7448120117188,857.0347290039062,-328.1255187988281,941.40771484375,257.81289672851557
853.7448120117188,857.0347290039062,-328.1255187988281,941.40771484375,253.9066467285156
852.0997924804688,863.6146850585938,-328.1255187988281,945.31396484375,257.81289672851557
852.0997924804688,868.5496215820312,-324.2192687988281,945.31396484375,257.81289672851557
852.0997924804688,868.5496215820312,-324.2192687988281,941.40771484375,257.81289672851557
852.0997924804688,863.6146850585938,-324.2192687988281,945.31396484375,261.71914672851557
852.0997924804688,852.0997924804688,-320.31298828125,941.40771484375,265.6254272460937
858.6797485351562,866.9046630859375,-332.0317687988281,949.22021484375,253.9066467285156
858.6797485351562,866.9046630859375,-324.2192687988281,937.50146484375,261.71914672851557
858.6797485351562,866.9046630859375,-324.2192687988281,945.31396484375,265.6254272460937
858.6797485351562,858.6797485351562,-328.1255187988281,949.22021484375,257.81289672851557
858.6797485351562,858.6797485351562,-320.31298828125,941.40771484375,265.6254272460937
853.7448120117188,861.9697265625,-320.31298828125,941.40771484375,265.6254272460937
848.8098754882812,855.3897705078125,-328.1255187988281,941.40771484375,261.71914672851557
848.8098754882812,855.3897705078125,-328.1255187988281,945.31396484375,265.6254272460937
852.0997924804688,858.6797485351562,-328.1255187988281,945.31396484375,265.6254272460937
850.454833984375,857.0347290039062,-324.2192687988281,941.40771484375,269.5316772460937
850.454833984375,857.0347290039062,-324.2192687988281,949.22021484375,265.6254272460937
843.8749389648438,843.8749389648438,-324.2192687988281,945.31396484375,265.6254272460937
843.8749389648438,843.8749389648438,-324.2192687988281,941.40771484375,265.6254272460937
848.8098754882812,850.454833984375,-328.1255187988281,945.31396484375,265.6254272460937
855.3897705078125,858.6797485351562,-324.2192687988281,937.50146484375,265.6254272460937
847.1648559570312,855.3897705078125,-324.2192687988281,937.50146484375,265.6254272460937
848.8098754882812,866.9046630859375,-324.2192687988281,937.50146484375,265.6254272460937
847.1648559570312,865.2596435546875,-320.31298828125,941.40771484375,269.5316772460937
847.1648559570312,855.3897705078125,-320.31298828125,945.31396484375,269.5316772460937
847.1648559570312,855.3897705078125,-328.1255187988281,945.31396484375,265.6254272460937
847.1648559570312,855.3897705078125,-328.1255187988281,941.40771484375,261.71914672851557
842.2299194335938,843.8749389648438,-320.31298828125,933.59521484375,269.5316772460937
850.454833984375,858.6797485351562,-324.2192687988281,949.22021484375,265.6254272460937
850.454833984375,848.8098754882812,-332.0317687988281,941.40771484375,265.6254272460937
850.454833984375,848.8098754882812,-332.0317687988281,937.50146484375,261.71914672851557
848.8098754882812,855.3897705078125,-332.0317687988281,937.50146484375,261.71914672851557
845.5198974609375,853.7448120117188,-328.1255187988281,941.40771484375,265.6254272460937
850.454833984375,845.5198974609375,-328.1255187988281,941.40771484375,265.6254272460937
843.8749389648438,852.0997924804688,-332.0317687988281,941.40771484375,265.6254272460937
843.8749389648438,852.0997924804688,-328.1255187988281,941.40771484375,265.6254272460937
848.8098754882812,848.8098754882812,-328.1255187988281,941.40771484375,265.6254272460937
840.5849609375,855.3897705078125,-324.2192687988281,945.31396484375,269.5316772460937
840.5849609375,855.3897705078125,-324.2192687988281,941.40771484375,269.5316772460937
845.5198974609375,853.7448120117188,-324.2192687988281,941.40771484375,265.6254272460937
850.454833984375,870.194580078125,-332.0317687988281,941.40771484375,261.71914672851557
850.454833984375,870.194580078125,-324.2192687988281,945.31396484375,269.5316772460937
845.5198974609375,868.5496215820312,-324.2192687988281,949.22021484375,265.6254272460937
840.5849609375,865.2596435546875,-324.2192687988281,949.22021484375,265.6254272460937
840.5849609375,855.3897705078125,-328.1255187988281,941.40771484375,261.71914672851557
840.5849609375,855.3897705078125,-332.0317687988281,941.40771484375,265.6254272460937
850.454833984375,857.0347290039062,-328.1255187988281,945.31396484375,261.71914672851557
845.5198974609375,858.6797485351562,-324.2192687988281,941.40771484375,265.6254272460937
845.5198974609375,858.6797485351562,-324.2192687988281,945.31396484375,265.6254272460937
848.8098754882812,855.3897705078125,-324.2192687988281,941.40771484375,265.6254272460937
847.1648559570312,860.32470703125,-332.0317687988281,941.40771484375,265.6254272460937
852.0997924804688,858.6797485351562,-324.2192687988281,941.40771484375,265.6254272460937
853.7448120117188,858.6797485351562,-324.2192687988281,945.31396484375,265.6254272460937
853.7448120117188,858.6797485351562,-324.2192687988281,941.40771484375,269.5316772460937
853.7448120117188,850.454833984375,-324.2192687988281,941.40771484375,269.5316772460937
852.0997924804688,842.2299194335938,-339.8442687988281,945.31396484375,257.81289672851557
852.0997924804688,842.2299194335938,-335.9380187988281,937.50146484375,257.81289672851557
848.8098754882812,850.454833984375,-324.2192687988281,929.68896484375,269.5316772460937
843.8749389648438,847.1648559570312,-324.2192687988281,945.31396484375,269.5316772460937
843.8749389648438,847.1648559570312,-320.31298828125,941.40771484375,269.5316772460937
843.8749389648438,852.0997924804688,-320.31298828125,941.40771484375,269.5316772460937
847.1648559570312,845.5198974609375,-328.1255187988281,937.50146484375,269.5316772460937
845.5198974609375,852.0997924804688,-328.1255187988281,937.50146484375,273.4379272460937
847.1648559570312,852.0997924804688,-324.2192687988281,945.31396484375,273.4379272460937
848.8098754882812,861.9697265625,-324.2192687988281,945.31396484375,273.4379272460937
848.8098754882812,858.6797485351562,-335.9380187988281,937.50146484375,269.5316772460937
848.8098754882812,858.6797485351562,-332.0317687988281,937.50146484375,269.5316772460937
847.1648559570312,858.6797485351562,-332.0317687988281,937.50146484375,269.5316772460937
852.0997924804688,850.454833984375,-324.2192687988281,937.50146484375,269.5316772460937
852.0997924804688,850.454833984375,-324.2192687988281,941.40771484375,273.4379272460937
852.0997924804688,850.454833984375,-332.0317687988281,945.31396484375,265.6254272460937
852.0997924804688,863.6146850585938,-320.31298828125,933.59521484375,277.3441772460937
848.8098754882812,842.2299194335938,-324.2192687988281,945.31396484375,273.4379272460937
852.0997924804688,857.0347290039062,-324.2192687988281,941.40771484375,269.5316772460937
852.0997924804688,857.0347290039062,-328.1255187988281,937.50146484375,269.5316772460937
847.1648559570312,852.0997924804688,-324.2192687988281,937.50146484375,269.5316772460937
847.1648559570312,852.0997924804688,-324.2192687988281,945.31396484375,269.5316772460937
847.1648559570312,852.0997924804688,-324.2192687988281,941.40771484375,269.5316772460937
852.0997924804688,852.0997924804688,-324.2192687988281,945.31396484375,273.4379272460937
852.0997924804688,852.0997924804688,-328.1255187988281,941.40771484375,269.5316772460937
847.1648559570312,848.8098754882812,-328.1255187988281,941.40771484375,269.5316772460937
845.5198974609375,850.454833984375,-320.31298828125,933.59521484375,269.5316772460937
845.5198974609375,850.454833984375,-320.31298828125,933.59521484375,273.4379272460937
852.0997924804688,830.715087890625,-316.40673828125,941.40771484375,273.4379272460937
852.0997924804688,830.715087890625,-316.40673828125,945.31396484375,273.4379272460937
863.6146850585938,832.3600463867188,-316.40673828125,941.40771484375,273.4379272460937
860.32470703125,840.5849609375,-324.2192687988281,941.40771484375,273.4379272460937
860.32470703125,840.5849609375,-332.0317687988281,941.40771484375,269.5316772460937
861.9697265625,842.2299194335938,-324.2192687988281,929.68896484375,273.4379272460937
848.8098754882812,865.2596435546875,-320.31298828125,941.40771484375,277.3441772460937
848.8098754882812,865.2596435546875,-316.40673828125,941.40771484375,285.1567077636719
845.5198974609375,855.3897705078125,-316.40673828125,941.40771484375,285.1567077636719
842.2299194335938,858.6797485351562,-324.2192687988281,941.40771484375,281.2504272460937
842.2299194335938,858.6797485351562,-324.2192687988281,941.40771484375,277.3441772460937
843.8749389648438,847.1648559570312,-324.2192687988281,933.59521484375,277.3441772460937
843.8749389648438,847.1648559570312,-320.31298828125,937.50146484375,281.2504272460937
843.8749389648438,847.1648559570312,-320.31298828125,937.50146484375,285.1567077636719
847.1648559570312,861.9697265625,-324.2192687988281,941.40771484375,281.2504272460937
847.1648559570312,861.9697265625,-320.31298828125,941.40771484375,281.2504272460937
847.1648559570312,860.32470703125,-320.31298828125,941.40771484375,281.2504272460937
845.5198974609375,845.5198974609375,-324.2192687988281,937.50146484375,277.3441772460937
845.5198974609375,845.5198974609375,-320.31298828125,937.50146484375,277.3441772460937
845.5198974609375,845.5198974609375,-320.31298828125,941.40771484375,277.3441772460937
843.8749389648438,858.6797485351562,-320.31298828125,941.40771484375,277.3441772460937
843.8749389648438,858.6797485351562,-312.50048828125,941.40771484375,281.2504272460937
845.5198974609375,842.2299194335938,-320.31298828125,937.50146484375,277.3441772460937
852.0997924804688,857.0347290039062,-312.50048828125,937.50146484375,285.1567077636719
853.7448120117188,865.2596435546875,-312.50048828125,937.50146484375,285.1567077636719
853.7448120117188,865.2596435546875,-316.40673828125,937.50146484375,281.2504272460937
842.2299194335938,863.6146850585938,-320.31298828125,937.50146484375,281.2504272460937
842.2299194335938,863.6146850585938,-320.31298828125,941.40771484375,281.2504272460937
842.2299194335938,863.6146850585938,-320.31298828125,945.31396484375,285.1567077636719
850.454833984375,858.6797485351562,-320.31298828125,945.31396484375,285.1567077636719
850.454833984375,863.6146850585938,-320.31298828125,941.40771484375,281.2504272460937
848.8098754882812,860.32470703125,-324.2192687988281,937.50146484375,285.1567077636719
847.1648559570312,852.0997924804688,-320.31298828125,941.40771484375,285.1567077636719
855.3897705078125,868.5496215820312,-316.40673828125,941.40771484375,285.1567077636719
855.3897705078125,861.9697265625,-312.50048828125,941.40771484375,285.1567077636719
855.3897705078125,848.8098754882812,-312.50048828125,941.40771484375,289.0629577636719
855.3897705078125,848.8098754882812,-324.2192687988281,941.40771484375,281.2504272460937
847.1648559570312,845.5198974609375,-320.31298828125,945.31396484375,281.2504272460937
847.1648559570312,845.5198974609375,-316.40673828125,945.31396484375,285.1567077636719
852.0997924804688,855.3897705078125,-316.40673828125,937.50146484375,285.1567077636719
848.8098754882812,858.6797485351562,-320.31298828125,941.40771484375,281.2504272460937
848.8098754882812,853.7448120117188,-320.31298828125,937.50146484375,281.2504272460937
847.1648559570312,853.7448120117188,-320.31298828125,937.50146484375,285.1567077636719
847.1648559570312,853.7448120117188,-320.31298828125,937.50146484375,281.2504272460937
852.0997924804688,855.3897705078125,-320.31298828125,937.50146484375,281.2504272460937
861.9697265625,855.3897705078125,-312.50048828125,937.50146484375,285.1567077636719
858.6797485351562,842.2299194335938,-316.40673828125,937.50146484375,285.1567077636719
863.6146850585938,858.6797485351562,-316.40673828125,937.50146484375,285.1567077636719
860.32470703125,853.7448120117188,-320.31298828125,937.50146484375,281.2504272460937
858.6797485351562,861.9697265625,-320.31298828125,941.40771484375,281.2504272460937
847.1648559570312,861.9697265625,-316.40673828125,941.40771484375,285.1567077636719
850.454833984375,866.9046630859375,-316.40673828125,941.40771484375,281.2504272460937
850.454833984375,866.9046630859375,-316.40673828125,937.50146484375,281.2504272460937
857.0347290039062,857.0347290039062,-316.40673828125,937.50146484375,281.2504272460937
853.7448120117188,853.7448120117188,-320.31298828125,941.40771484375,281.2504272460937
853.7448120117188,857.0347290039062,-316.40673828125,941.40771484375,281.2504272460937
848.8098754882812,853.7448120117188,-312.50048828125,941.40771484375,285.1567077636719
857.0347290039062,842.2299194335938,-316.40673828125,937.50146484375,281.2504272460937
857.0347290039062,842.2299194335938,-312.50048828125,937.50146484375,285.1567077636719
858.6797485351562,848.8098754882812,-320.31298828125,949.22021484375,281.2504272460937
858.6797485351562,848.8098754882812,-312.50048828125,937.50146484375,285.1567077636719
852.0997924804688,843.8749389648438,-312.50048828125,937.50146484375,285.1567077636719
850.454833984375,850.454833984375,-320.31298828125,937.50146484375,285.1567077636719
853.7448120117188,861.9697265625,-316.40673828125,945.31396484375,281.2504272460937
853.7448120117188,861.9697265625,-316.40673828125,937.50146484375,281.2504272460937
853.7448120117188,860.32470703125,-316.40673828125,937.50146484375,281.2504272460937
847.1648559570312,835.6500244140625,-316.40673828125,941.40771484375,281.2504272460937
845.5198974609375,834.0050048828125,-316.40673828125,941.40771484375,281.2504272460937
850.454833984375,848.8098754882812,-312.50048828125,941.40771484375,285.1567077636719
855.3897705078125,855.3897705078125,-316.40673828125,941.40771484375,285.1567077636719
855.3897705078125,855.3897705078125,-320.31298828125,945.31396484375,285.1567077636719
848.8098754882812,848.8098754882812,-324.2192687988281,941.40771484375,281.2504272460937
848.8098754882812,848.8098754882812,-312.50048828125,937.50146484375,289.0629577636719
848.8098754882812,848.8098754882812,-316.40673828125,949.22021484375,285.1567077636719
852.0997924804688,876.7745361328125,-320.31298828125,937.50146484375,285.1567077636719
855.3897705078125,868.5496215820312,-320.31298828125,937.50146484375,281.2504272460937
848.8098754882812,855.3897705078125,-316.40673828125,937.50146484375,281.2504272460937
848.8098754882812,866.9046630859375,-316.40673828125,941.40771484375,281.2504272460937
848.8098754882812,873.4845581054688,-316.40673828125,941.40771484375,285.1567077636719
848.8098754882812,873.4845581054688,-316.40673828125,937.50146484375,285.1567077636719
842.2299194335938,860.32470703125,-320.31298828125,937.50146484375,281.2504272460937
848.8098754882812,866.9046630859375,-316.40673828125,937.50146484375,285.1567077636719
848.8098754882812,863.6146850585938,-312.50048828125,937.50146484375,289.0629577636719
845.5198974609375,858.6797485351562,-316.40673828125,941.40771484375,285.1567077636719
845.5198974609375,858.6797485351562,-324.2192687988281,941.40771484375,281.2504272460937
845.5198974609375,858.6797485351562,-316.40673828125,933.59521484375,285.1567077636719
848.8098754882812,850.454833984375,-316.40673828125,949.22021484375,285.1567077636719
848.8098754882812,850.454833984375,-316.40673828125,941.40771484375,289.0629577636719
852.0997924804688,857.0347290039062,-316.40673828125,937.50146484375,289.0629577636719
852.0997924804688,857.0347290039062,-316.40673828125,937.50146484375,285.1567077636719
857.0347290039062,853.7448120117188,-320.31298828125,937.50146484375,285.1567077636719
847.1648559570312,847.1648559570312,-316.40673828125,937.50146484375,285.1567077636719
847.1648559570312,847.1648559570312,-312.50048828125,941.40771484375,285.1567077636719
853.7448120117188,858.6797485351562,-308.59423828125,941.40771484375,285.1567077636719
845.5198974609375,857.0347290039062,-324.2192687988281,937.50146484375,281.2504272460937
845.5198974609375,857.0347290039062,-316.40673828125,941.40771484375,285.1567077636719
845.5198974609375,850.454833984375,-316.40673828125,937.50146484375,285.1567077636719
848.8098754882812,860.32470703125,-316.40673828125,937.50146484375,285.1567077636719
848.8098754882812,860.32470703125,-312.50048828125,941.40771484375,289.0629577636719
848.8098754882812,860.32470703125,-312.50048828125,937.50146484375,285.1567077636719
848.8098754882812,860.32470703125,-316.40673828125,945.31396484375,289.0629577636719
850.454833984375,865.2596435546875,-316.40673828125,945.31396484375,289.0629577636719
843.8749389648438,853.7448120117188,-320.31298828125,941.40771484375,281.2504272460937
843.8749389648438,852.0997924804688,-316.40673828125,941.40771484375,285.1567077636719
845.5198974609375,853.7448120117188,-308.59423828125,945.31396484375,289.0629577636719
845.5198974609375,857.0347290039062,-312.50048828125,941.40771484375,285.1567077636719
848.8098754882812,857.0347290039062,-316.40673828125,941.40771484375,285.1567077636719
848.8098754882812,857.0347290039062,-324.2192687988281,937.50146484375,285.1567077636719
848.8098754882812,857.0347290039062,-324.2192687988281,933.59521484375,281.2504272460937
843.8749389648438,855.3897705078125,-324.2192687988281,933.59521484375,281.2504272460937
847.1648559570312,850.454833984375,-316.40673828125,937.50146484375,285.1567077636719
847.1648559570312,850.454833984375,-312.50048828125,937.50146484375,289.0629577636719
848.8098754882812,857.0347290039062,-312.50048828125,937.50146484375,289.0629577636719
852.0997924804688,852.0997924804688,-312.50048828125,945.31396484375,285.1567077636719
843.8749389648438,850.454833984375,-316.40673828125,937.50146484375,285.1567077636719
843.8749389648438,850.454833984375,-316.40673828125,937.50146484375,289.0629577636719
843.8749389648438,850.454833984375,-312.50048828125,941.40771484375,289.0629577636719
847.1648559570312,850.454833984375,-312.50048828125,941.40771484375,289.0629577636719
848.8098754882812,860.32470703125,-316.40673828125,933.59521484375,285.1567077636719
848.8098754882812,860.32470703125,-320.31298828125,933.59521484375,281.2504272460937
850.454833984375,848.8098754882812,-320.31298828125,933.59521484375,281.2504272460937
847.1648559570312,847.1648559570312,-316.40673828125,941.40771484375,285.1567077636719
847.1648559570312,847.1648559570312,-312.50048828125,937.50146484375,289.0629577636719
845.5198974609375,838.9400024414062,-316.40673828125,941.40771484375,289.0629577636719
845.5198974609375,838.9400024414062,-320.31298828125,941.40771484375,285.1567077636719
845.5198974609375,838.9400024414062,-324.2192687988281,941.40771484375,281.2504272460937
857.0347290039062,858.6797485351562,-332.0317687988281,933.59521484375,277.3441772460937
857.0347290039062,858.6797485351562,-324.2192687988281,925.78271484375,277.3441772460937
855.3897705078125,870.194580078125,-324.2192687988281,925.78271484375,277.3441772460937
852.0997924804688,860.32470703125,-324.2192687988281,925.78271484375,277.3441772460937
850.454833984375,853.7448120117188,-316.40673828125,949.22021484375,289.0629577636719
847.1648559570312,860.32470703125,-320.31298828125,949.22021484375,289.0629577636719
850.454833984375,873.4845581054688,-316.40673828125,937.50146484375,281.2504272460937
848.8098754882812,860.32470703125,-316.40673828125,937.50146484375,281.2504272460937
850.454833984375,866.9046630859375,-316.40673828125,933.59521484375,281.2504272460937
848.8098754882812,865.2596435546875,-316.40673828125,937.50146484375,289.0629577636719
847.1648559570312,873.4845581054688,-316.40673828125,937.50146484375,289.0629577636719
845.5198974609375,870.194580078125,-316.40673828125,937.50146484375,289.0629577636719
842.2299194335938,865.2596435546875,-312.50048828125,937.50146484375,289.0629577636719
857.0347290039062,871.839599609375,-308.59423828125,945.31396484375,289.0629577636719
847.1648559570312,861.9697265625,-312.50048828125,945.31396484375,289.0629577636719
847.1648559570312,861.9697265625,-312.50048828125,937.50146484375,289.0629577636719
845.5198974609375,843.8749389648438,-312.50048828125,937.50146484375,289.0629577636719
847.1648559570312,850.454833984375,-316.40673828125,937.50146484375,289.0629577636719
848.8098754882812,860.32470703125,-316.40673828125,941.40771484375,289.0629577636719
852.0997924804688,850.454833984375,-312.50048828125,937.50146484375,289.0629577636719
848.8098754882812,863.6146850585938,-347.65679931640625,929.68896484375,289.0629577636719
848.8098754882812,863.6146850585938,-355.46929931640625,933.59521484375,281.2504272460937
845.5198974609375,852.0997924804688,-355.46929931640625,933.59521484375,281.2504272460937
843.8749389648438,857.0347290039062,-359.37554931640625,929.68896484375,281.2504272460937
843.8749389648438,857.0347290039062,-367.1880798339844,933.59521484375,281.2504272460937
848.8098754882812,858.6797485351562,-367.1880798339844,933.59521484375,281.2504272460937
852.0997924804688,852.0997924804688,-375.0005798339844,929.68896484375,273.4379272460937
852.0997924804688,852.0997924804688,-390.6256103515625,933.59521484375,273.4379272460937
845.5198974609375,848.8098754882812,-402.3443908691406,933.59521484375,265.6254272460937
848.8098754882812,847.1648559570312,-398.4381103515625,933.59521484375,257.81289672851557
848.8098754882812,847.1648559570312,-390.6256103515625,925.78271484375,261.71914672851557
847.1648559570312,843.8749389648438,-382.8131103515625,917.97021484375,253.9066467285156
850.454833984375,853.7448120117188,-386.7193603515625,929.68896484375,242.18788146972656
852.0997924804688,850.454833984375,-339.8442687988281,972.6577758789062,207.0315704345703
843.8749389648438,850.454833984375,-343.75054931640625,945.31396484375,210.93783569335938
843.8749389648438,850.454833984375,-351.56304931640625,949.22021484375,207.0315704345703
843.8749389648438,850.454833984375,-347.65679931640625,933.59521484375,210.93783569335938
847.1648559570312,870.194580078125,-347.65679931640625,933.59521484375,210.93783569335938
847.1648559570312,865.2596435546875,-433.5944213867188,953.12646484375,167.96900939941406
847.1648559570312,858.6797485351562,-433.5944213867188,953.12646484375,167.96900939941406
853.7448120117188,881.70947265625,-472.656982421875,925.78271484375,250.0003967285156
852.0997924804688,866.9046630859375,-406.2506408691406,937.50146484375,289.0629577636719
848.8098754882812,852.0997924804688,-359.37554931640625,941.40771484375,281.2504272460937
848.8098754882812,852.0997924804688,-351.56304931640625,957.0327758789062,261.71914672851557
850.454833984375,843.8749389648438,-351.56304931640625,957.0327758789062,261.71914672851557
850.454833984375,843.8749389648438,-296.8754577636719,937.50146484375,277.3441772460937
848.8098754882812,855.3897705078125,-367.1880798339844,976.5640258789062,273.4379272460937
845.5198974609375,866.9046630859375,-328.1255187988281,980.4702758789062,253.9066467285156
845.5198974609375,866.9046630859375,-335.9380187988281,957.0327758789062,238.2816162109375
847.1648559570312,857.0347290039062,-296.8754577636719,964.8452758789062,183.5940399169922
847.1648559570312,863.6146850585938,-296.8754577636719,964.8452758789062,183.5940399169922
860.32470703125,865.2596435546875,-316.40673828125,914.0639038085938,160.156494140625
857.0347290039062,861.9697265625,-363.2818298339844,941.40771484375,78.1251220703125
848.8098754882812,894.8693237304688,-351.56304931640625,914.0639038085938,132.81271362304688
848.8098754882812,894.8693237304688,-339.8442687988281,902.3451538085938,156.250244140625
845.5198974609375,834.0050048828125,-464.844482421875,968.7515258789062,85.93763732910156
845.5198974609375,834.0050048828125,-460.938232421875,972.6577758789062,54.687583923339844
845.5198974609375,834.0050048828125,-460.938232421875,933.59521484375,42.96881866455078
858.6797485351562,871.839599609375,-414.0631408691406,941.40771484375,39.06256103515625
850.454833984375,855.3897705078125,-351.56304931640625,921.87646484375,-15.625024795532227
850.454833984375,855.3897705078125,-343.75054931640625,941.40771484375,3.9062561988830566
850.454833984375,855.3897705078125,-335.9380187988281,953.12646484375,27.343791961669922
837.2949829101562,860.32470703125,-433.5944213867188,960.9390258789062,82.03137969970703
837.2949829101562,860.32470703125,-453.1257019042969,933.59521484375,93.7501449584961
837.2949829101562,860.32470703125,-460.938232421875,902.3451538085938,93.7501449584961
845.5198974609375,886.6444091796875,-449.2194519042969,914.0639038085938,97.65640258789062
845.5198974609375,886.6444091796875,-437.5006713867188,917.97021484375,117.18768310546876
845.5198974609375,886.6444091796875,-453.1257019042969,917.97021484375,113.28142547607422
850.454833984375,901.44921875,-476.563232421875,921.87646484375,109.37516784667969
847.1648559570312,898.1592407226562,-433.5944213867188,937.50146484375,128.90644836425778
847.1648559570312,898.1592407226562,-429.6881713867188,957.0327758789062,132.81271362304688
852.0997924804688,886.6444091796875,-429.6881713867188,957.0327758789062,132.81271362304688
852.0997924804688,886.6444091796875,-453.1257019042969,964.8452758789062,105.46891784667969
852.0997924804688,886.6444091796875,-453.1257019042969,968.7515258789062,105.46891784667969
843.8749389648438,865.2596435546875,-468.750732421875,933.59521484375,74.21886444091797
840.5849609375,875.1295166015625,-464.844482421875,925.78271484375,66.40635681152344
838.9400024414062,875.1295166015625,-460.938232421875,929.68896484375,39.06256103515625
847.1648559570312,870.194580078125,-472.656982421875,941.40771484375,15.625024795532227
847.1648559570312,875.1295166015625,-472.656982421875,941.40771484375,15.625024795532227
845.5198974609375,866.9046630859375,-476.563232421875,910.1576538085938,-11.718768119812012
855.3897705078125,875.1295166015625,-476.563232421875,910.1576538085938,-11.718768119812012
847.1648559570312,852.0997924804688,-414.0631408691406,949.22021484375,-19.531280517578125
837.2949829101562,852.0997924804688,-410.1568908691406,941.40771484375,-15.625024795532227
837.2949829101562,852.0997924804688,-417.9693908691406,953.12646484375,-7.812512397766112
837.2949829101562,852.0997924804688,-414.0631408691406,941.40771484375,-3.9062561988830566
845.5198974609375,865.2596435546875,-410.1568908691406,937.50146484375,46.87507247924805
847.1648559570312,847.1648559570312,-398.4381103515625,960.9390258789062,58.59384155273438
847.1648559570312,847.1648559570312,-390.6256103515625,968.7515258789062,54.687583923339844
847.1648559570312,847.1648559570312,-390.6256103515625,953.12646484375,54.687583923339844
852.0997924804688,858.6797485351562,-390.6256103515625,953.12646484375,54.687583923339844
850.454833984375,850.454833984375,-425.7819213867188,945.31396484375,31.25004959106445
848.8098754882812,840.5849609375,-425.7819213867188,949.22021484375,23.437536239624023
848.8098754882812,840.5849609375,-421.8756713867188,941.40771484375,11.718768119812012
848.8098754882812,840.5849609375,-414.0631408691406,941.40771484375,-3.9062561988830566
861.9697265625,834.0050048828125,-382.8131103515625,945.31396484375,-7.812512397766112
843.8749389648438,838.9400024414062,-394.5318603515625,953.12646484375,-19.531280517578125
853.7448120117188,843.8749389648438,-394.5318603515625,949.22021484375,-19.531280517578125
853.7448120117188,843.8749389648438,-402.3443908691406,941.40771484375,-19.531280517578125
848.8098754882812,840.5849609375,-414.0631408691406,941.40771484375,-19.531280517578125
848.8098754882812,840.5849609375,-410.1568908691406,941.40771484375,-15.625024795532227
863.6146850585938,837.2949829101562,-410.1568908691406,941.40771484375,-15.625024795532227
857.0347290039062,832.3600463867188,-410.1568908691406,953.12646484375,-3.9062561988830566
847.1648559570312,845.5198974609375,-402.3443908691406,949.22021484375,-3.9062561988830566
847.1648559570312,845.5198974609375,-406.2506408691406,949.22021484375,-3.9062561988830566
847.1648559570312,847.1648559570312,-406.2506408691406,949.22021484375,-3.9062561988830566
850.454833984375,850.454833984375,-414.0631408691406,949.22021484375,-7.812512397766112
847.1648559570312,842.2299194335938,-402.3443908691406,945.31396484375,0.0
848.8098754882812,843.8749389648438,-406.2506408691406,949.22021484375,-7.812512397766112
848.8098754882812,843.8749389648438,-386.7193603515625,941.40771484375,-7.812512397766112
850.454833984375,850.454833984375,-386.7193603515625,941.40771484375,-7.812512397766112
843.8749389648438,853.7448120117188,-378.9068298339844,949.22021484375,-7.812512397766112
843.8749389648438,853.7448120117188,-394.5318603515625,949.22021484375,-7.812512397766112
847.1648559570312,843.8749389648438,-386.7193603515625,953.12646484375,19.531280517578125
847.1648559570312,845.5198974609375,-386.7193603515625,953.12646484375,19.531280517578125
852.0997924804688,834.0050048828125,-394.5318603515625,964.8452758789062,39.06256103515625
853.7448120117188,855.3897705078125,-394.5318603515625,949.22021484375,42.96881866455078
848.8098754882812,850.454833984375,-394.5318603515625,949.22021484375,42.96881866455078
848.8098754882812,850.454833984375,-378.9068298339844,957.0327758789062,27.343791961669922
850.454833984375,840.5849609375,-390.6256103515625,953.12646484375,15.625024795532227
850.454833984375,840.5849609375,-386.7193603515625,957.0327758789062,11.718768119812012
861.9697265625,838.9400024414062,-386.7193603515625,957.0327758789062,11.718768119812012
858.6797485351562,847.1648559570312,-375.0005798339844,949.22021484375,7.812512397766112
858.6797485351562,847.1648559570312,-371.0943298339844,953.12646484375,3.9062561988830566
858.6797485351562,847.1648559570312,-371.0943298339844,957.0327758789062,3.9062561988830566
848.8098754882812,845.5198974609375,-382.8131103515625,960.9390258789062,0.0
848.8098754882812,845.5198974609375,-394.5318603515625,949.22021484375,-7.812512397766112
855.3897705078125,865.2596435546875,-394.5318603515625,949.22021484375,-7.812512397766112
860.32470703125,870.194580078125,-390.6256103515625,917.97021484375,3.9062561988830566
860.32470703125,870.194580078125,-390.6256103515625,914.0639038085938,3.9062561988830566
847.1648559570312,860.32470703125,-382.8131103515625,910.1576538085938,31.25004959106445
847.1648559570312,860.32470703125,-378.9068298339844,933.59521484375,54.687583923339844
842.2299194335938,840.5849609375,-332.0317687988281,945.31396484375,19.531280517578125
845.5198974609375,858.6797485351562,-285.1567077636719,949.22021484375,35.15630340576172
850.454833984375,847.1648559570312,-285.1567077636719,949.22021484375,35.15630340576172
855.3897705078125,860.32470703125,-355.46929931640625,976.5640258789062,35.15630340576172
847.1648559570312,853.7448120117188,-371.0943298339844,960.9390258789062,35.15630340576172
853.7448120117188,832.3600463867188,-402.3443908691406,964.8452758789062,35.15630340576172
853.7448120117188,832.3600463867188,-406.2506408691406,976.5640258789062,15.625024795532227
845.5198974609375,842.2299194335938,-406.2506408691406,976.5640258789062,15.625024795532227
838.9400024414062,838.9400024414062,-378.9068298339844,953.12646484375,-7.812512397766112
842.2299194335938,837.2949829101562,-363.2818298339844,949.22021484375,-15.625024795532227
842.2299194335938,860.32470703125,-363.2818298339844,949.22021484375,-15.625024795532227
850.454833984375,838.9400024414062,-343.75054931640625,933.59521484375,0.0
850.454833984375,838.9400024414062,-328.1255187988281,976.5640258789062,19.531280517578125
848.8098754882812,840.5849609375,-343.75054931640625,988.2827758789062,19.531280517578125
847.1648559570312,845.5198974609375,-367.1880798339844,945.31396484375,11.718768119812012
850.454833984375,848.8098754882812,-316.40673828125,984.3765258789062,39.06256103515625
850.454833984375,848.8098754882812,-351.56304931640625,964.8452758789062,42.96881866455078
845.5198974609375,847.1648559570312,-371.0943298339844,906.2514038085938,70.31260681152344
843.8749389648438,842.2299194335938,-371.0943298339844,925.78271484375,128.90644836425778
843.8749389648438,842.2299194335938,-429.6881713867188,964.8452758789062,136.71896362304688
842.2299194335938,848.8098754882812,-429.6881713867188,964.8452758789062,136.71896362304688
845.5198974609375,855.3897705078125,-363.2818298339844,957.0327758789062,128.90644836425778
840.5849609375,842.2299194335938,-304.68798828125,910.1576538085938,152.343994140625
840.5849609375,842.2299194335938,-304.68798828125,953.12646484375,148.43772888183594
845.5198974609375,838.9400024414062,-324.2192687988281,976.5640258789062,128.90644836425778
843.8749389648438,840.5849609375,-300.7817077636719,980.4702758789062,109.37516784667969
843.8749389648438,840.5849609375,-308.59423828125,976.5640258789062,101.56266021728516
840.5849609375,834.0050048828125,-292.9692077636719,980.4702758789062,101.56266021728516
840.5849609375,834.0050048828125,-285.1567077636719,980.4702758789062,105.46891784667969
840.5849609375,834.0050048828125,-292.9692077636719,988.2827758789062,101.56266021728516
852.0997924804688,838.9400024414062,-324.2192687988281,980.4702758789062,97.65640258789062
852.0997924804688,838.9400024414062,-332.0317687988281,984.3765258789062,93.7501449584961
852.0997924804688,838.9400024414062,-332.0317687988281,976.5640258789062,89.84388732910156
848.8098754882812,830.715087890625,-332.0317687988281,976.5640258789062,89.84388732910156
847.1648559570312,837.2949829101562,-367.1880798339844,949.22021484375,78.1251220703125
847.1648559570312,852.0997924804688,-378.9068298339844,960.9390258789062,78.1251220703125
847.1648559570312,852.0997924804688,-375.0005798339844,957.0327758789062,82.03137969970703
848.8098754882812,868.5496215820312,-371.0943298339844,949.22021484375,82.03137969970703
847.1648559570312,861.9697265625,-367.1880798339844,964.8452758789062,82.03137969970703
847.1648559570312,861.9697265625,-375.0005798339844,976.5640258789062,66.40635681152344
847.1648559570312,852.0997924804688,-375.0005798339844,976.5640258789062,66.40635681152344
845.5198974609375,847.1648559570312,-375.0005798339844,972.6577758789062,62.5000991821289
845.5198974609375,847.1648559570312,-367.1880798339844,945.31396484375,62.5000991821289
852.0997924804688,852.0997924804688,-363.2818298339844,945.31396484375,58.59384155273438
852.0997924804688,852.0997924804688,-359.37554931640625,964.8452758789062,62.5000991821289
845.5198974609375,838.9400024414062,-363.2818298339844,960.9390258789062,70.31260681152344
847.1648559570312,834.0050048828125,-363.2818298339844,957.0327758789062,74.21886444091797
843.8749389648438,845.5198974609375,-363.2818298339844,960.9390258789062,82.03137969970703
848.8098754882812,848.8098754882812,-355.46929931640625,968.7515258789062,89.84388732910156
852.0997924804688,855.3897705078125,-355.46929931640625,972.6577758789062,89.84388732910156
852.0997924804688,855.3897705078125,-359.37554931640625,972.6577758789062,89.84388732910156
852.0997924804688,855.3897705078125,-359.37554931640625,964.8452758789062,89.84388732910156
848.8098754882812,840.5849609375,-359.37554931640625,964.8452758789062,89.84388732910156
850.454833984375,843.8749389648438,-355.46929931640625,964.8452758789062,89.84388732910156
850.454833984375,843.8749389648438,-347.65679931640625,964.8452758789062,89.84388732910156
843.8749389648438,838.9400024414062,-347.65679931640625,964.8452758789062,89.84388732910156
840.5849609375,834.0050048828125,-355.46929931640625,968.7515258789062,89.84388732910156
843.8749389648438,840.5849609375,-355.46929931640625,960.9390258789062,93.7501449584961
845.5198974609375,835.6500244140625,-355.46929931640625,960.9390258789062,93.7501449584961
850.454833984375,838.9400024414062,-355.46929931640625,976.5640258789062,89.84388732910156
850.454833984375,842.2299194335938,-363.2818298339844,960.9390258789062,82.03137969970703
842.2299194335938,835.6500244140625,-375.0005798339844,960.9390258789062,70.31260681152344
855.3897705078125,834.0050048828125,-375.0005798339844,960.9390258789062,70.31260681152344
855.3897705078125,827.4251098632812,-367.1880798339844,960.9390258789062,78.1251220703125
855.3897705078125,827.4251098632812,-359.37554931640625,964.8452758789062,82.03137969970703
855.3897705078125,827.4251098632812,-355.46929931640625,964.8452758789062,82.03137969970703
860.32470703125,832.3600463867188,-355.46929931640625,964.8452758789062,82.03137969970703
848.8098754882812,842.2299194335938,-355.46929931640625,960.9390258789062,78.1251220703125
848.8098754882812,840.5849609375,-355.46929931640625,960.9390258789062,78.1251220703125
845.5198974609375,829.070068359375,-351.56304931640625,960.9390258789062,78.1251220703125
845.5198974609375,829.070068359375,-347.65679931640625,968.7515258789062,82.03137969970703
837.2949829101562,857.0347290039062,-355.46929931640625,953.12646484375,74.21886444091797
842.2299194335938,855.3897705078125,-355.46929931640625,960.9390258789062,74.21886444091797
842.2299194335938,843.8749389648438,-355.46929931640625,964.8452758789062,78.1251220703125
842.2299194335938,843.8749389648438,-363.2818298339844,960.9390258789062,78.1251220703125
842.2299194335938,850.454833984375,-359.37554931640625,960.9390258789062,82.03137969970703
843.8749389648438,858.6797485351562,-355.46929931640625,964.8452758789062,85.93763732910156
843.8749389648438,858.6797485351562,-359.37554931640625,968.7515258789062,82.03137969970703
850.454833984375,857.0347290039062,-359.37554931640625,968.7515258789062,82.03137969970703
847.1648559570312,850.454833984375,-355.46929931640625,964.8452758789062,89.84388732910156
847.1648559570312,850.454833984375,-351.56304931640625,972.6577758789062,89.84388732910156
847.1648559570312,842.2299194335938,-355.46929931640625,960.9390258789062,85.93763732910156
847.1648559570312,842.2299194335938,-367.1880798339844,953.12646484375,82.03137969970703
847.1648559570312,842.2299194335938,-375.0005798339844,953.12646484375,78.1251220703125
847.1648559570312,843.8749389648438,-375.0005798339844,953.12646484375,78.1251220703125
848.8098754882812,843.8749389648438,-375.0005798339844,953.12646484375,78.1251220703125
845.5198974609375,850.454833984375,-359.37554931640625,964.8452758789062,85.93763732910156
845.5198974609375,855.3897705078125,-359.37554931640625,964.8452758789062,85.93763732910156
845.5198974609375,850.454833984375,-359.37554931640625,957.0327758789062,85.93763732910156
845.5198974609375,850.454833984375,-363.2818298339844,960.9390258789062,85.93763732910156
852.0997924804688,847.1648559570312,-359.37554931640625,964.8452758789062,89.84388732910156
853.7448120117188,853.7448120117188,-359.37554931640625,964.8452758789062,89.84388732910156
847.1648559570312,840.5849609375,-367.1880798339844,964.8452758789062,89.84388732910156
847.1648559570312,840.5849609375,-367.1880798339844,964.8452758789062,85.93763732910156
852.0997924804688,850.454833984375,-367.1880798339844,964.8452758789062,85.93763732910156
845.5198974609375,837.2949829101562,-367.1880798339844,957.0327758789062,82.03137969970703
845.5198974609375,837.2949829101562,-363.2818298339844,960.9390258789062,82.03137969970703
847.1648559570312,840.5849609375,-363.2818298339844,960.9390258789062,82.03137969970703
848.8098754882812,842.2299194335938,-367.1880798339844,964.8452758789062,78.1251220703125
848.8098754882812,842.2299194335938,-359.37554931640625,964.8452758789062,78.1251220703125
848.8098754882812,842.2299194335938,-371.0943298339844,960.9390258789062,66.40635681152344
852.0997924804688,852.0997924804688,-363.2818298339844,960.9390258789062,70.31260681152344
852.0997924804688,852.0997924804688,-355.46929931640625,968.7515258789062,66.40635681152344
852.0997924804688,852.0997924804688,-367.1880798339844,972.6577758789062,58.59384155273438
850.454833984375,847.1648559570312,-367.1880798339844,972.6577758789062,58.59384155273438
853.7448120117188,858.6797485351562,-347.65679931640625,968.7515258789062,82.03137969970703
850.454833984375,847.1648559570312,-355.46929931640625,972.6577758789062,85.93763732910156
852.0997924804688,842.2299194335938,-363.2818298339844,964.8452758789062,85.93763732910156
847.1648559570312,852.0997924804688,-371.0943298339844,957.0327758789062,82.03137969970703
847.1648559570312,852.0997924804688,-371.0943298339844,953.12646484375,85.93763732910156
847.1648559570312,852.0997924804688,-371.0943298339844,957.0327758789062,85.93763732910156
847.1648559570312,852.0997924804688,-367.1880798339844,964.8452758789062,89.84388732910156
845.5198974609375,857.0347290039062,-367.1880798339844,964.8452758789062,89.84388732910156
842.2299194335938,852.0997924804688,-367.1880798339844,968.7515258789062,82.03137969970703
842.2299194335938,852.0997924804688,-363.2818298339844,960.9390258789062,85.93763732910156
845.5198974609375,857.0347290039062,-363.2818298339844,960.9390258789062,85.93763732910156
848.8098754882812,845.5198974609375,-378.9068298339844,960.9390258789062,70.31260681152344
848.8098754882812,845.5198974609375,-359.37554931640625,953.12646484375,82.03137969970703
848.8098754882812,845.5198974609375,-359.37554931640625,960.9390258789062,78.1251220703125
848.8098754882812,847.1648559570312,-355.46929931640625,968.7515258789062,78.1251220703125
848.8098754882812,847.1648559570312,-355.46929931640625,964.8452758789062,74.21886444091797
845.5198974609375,829.070068359375,-355.46929931640625,960.9390258789062,70.31260681152344
845.5198974609375,829.070068359375,-359.37554931640625,964.8452758789062,66.40635681152344
843.8749389648438,840.5849609375,-355.46929931640625,957.0327758789062,70.31260681152344
843.8749389648438,848.8098754882812,-355.46929931640625,964.8452758789062,74.21886444091797
843.8749389648438,848.8098754882812,-355.46929931640625,964.8452758789062,70.31260681152344
845.5198974609375,835.6500244140625,-355.46929931640625,964.8452758789062,70.31260681152344
845.5198974609375,855.3897705078125,-363.2818298339844,957.0327758789062,70.31260681152344
845.5198974609375,855.3897705078125,-363.2818298339844,960.9390258789062,70.31260681152344
850.454833984375,858.6797485351562,-359.37554931640625,960.9390258789062,78.1251220703125
850.454833984375,847.1648559570312,-359.37554931640625,960.9390258789062,78.1251220703125
847.1648559570312,834.0050048828125,-367.1880798339844,960.9390258789062,78.1251220703125
847.1648559570312,834.0050048828125,-371.0943298339844,960.9390258789062,74.21886444091797
847.1648559570312,843.8749389648438,-359.37554931640625,957.0327758789062,85.93763732910156
848.8098754882812,847.1648559570312,-355.46929931640625,960.9390258789062,93.7501449584961
843.8749389648438,845.5198974609375,-375.0005798339844,957.0327758789062,89.84388732910156
843.8749389648438,845.5198974609375,-375.0005798339844,957.0327758789062,93.7501449584961
847.1648559570312,843.8749389648438,-371.0943298339844,960.9390258789062,97.65640258789062
848.8098754882812,860.32470703125,-371.0943298339844,964.8452758789062,97.65640258789062
848.8098754882812,860.32470703125,-375.0005798339844,957.0327758789062,101.56266021728516
848.8098754882812,850.454833984375,-375.0005798339844,953.12646484375,101.56266021728516
847.1648559570312,843.8749389648438,-375.0005798339844,953.12646484375,105.46891784667969
848.8098754882812,848.8098754882812,-371.0943298339844,957.0327758789062,109.37516784667969
848.8098754882812,848.8098754882812,-375.0005798339844,960.9390258789062,105.46891784667969
845.5198974609375,855.3897705078125,-382.8131103515625,953.12646484375,97.65640258789062
845.5198974609375,855.3897705078125,-371.0943298339844,960.9390258789062,105.46891784667969
850.454833984375,852.0997924804688,-375.0005798339844,964.8452758789062,101.56266021728516
850.454833984375,843.8749389648438,-371.0943298339844,953.12646484375,97.65640258789062
848.8098754882812,861.9697265625,-375.0005798339844,953.12646484375,97.65640258789062
843.8749389648438,843.8749389648438,-371.0943298339844,964.8452758789062,97.65640258789062
847.1648559570312,853.7448120117188,-375.0005798339844,957.0327758789062,101.56266021728516
847.1648559570312,853.7448120117188,-371.0943298339844,960.9390258789062,101.56266021728516
847.1648559570312,848.8098754882812,-371.0943298339844,953.12646484375,101.56266021728516
848.8098754882812,852.0997924804688,-371.0943298339844,957.0327758789062,105.46891784667969
842.2299194335938,837.2949829101562,-367.1880798339844,953.12646484375,105.46891784667969
838.9400024414062,861.9697265625,-371.0943298339844,960.9390258789062,101.56266021728516
838.9400024414062,861.9697265625,-363.2818298339844,957.0327758789062,105.46891784667969
838.9400024414062,861.9697265625,-359.37554931640625,960.9390258789062,105.46891784667969
845.5198974609375,860.32470703125,-363.2818298339844,957.0327758789062,105.46891784667969
843.8749389648438,843.8749389648438,-371.0943298339844,957.0327758789062,101.56266021728516
845.5198974609375,843.8749389648438,-371.0943298339844,957.0327758789062,101.56266021728516
843.8749389648438,842.2299194335938,-367.1880798339844,964.8452758789062,101.56266021728516
850.454833984375,847.1648559570312,-363.2818298339844,964.8452758789062,105.46891784667969
847.1648559570312,853.7448120117188,-363.2818298339844,960.9390258789062,109.37516784667969
847.1648559570312,853.7448120117188,-367.1880798339844,960.9390258789062,105.46891784667969
847.1648559570312,860.32470703125,-367.1880798339844,960.9390258789062,105.46891784667969
848.8098754882812,858.6797485351562,-367.1880798339844,960.9390258789062,105.46891784667969
847.1648559570312,848.8098754882812,-375.0005798339844,957.0327758789062,101.56266021728516
843.8749389648438,842.2299194335938,-359.37554931640625,957.0327758789062,109.37516784667969
843.8749389648438,842.2299194335938,-363.2818298339844,964.8452758789062,109.37516784667969
843.8749389648438,842.2299194335938,-359.37554931640625,964.8452758789062,113.28142547607422
848.8098754882812,852.0997924804688,-359.37554931640625,964.8452758789062,113.28142547607422
850.454833984375,853.7448120117188,-367.1880798339844,960.9390258789062,101.56266021728516
845.5198974609375,843.8749389648438,-359.37554931640625,960.9390258789062,105.46891784667969
845.5198974609375,843.8749389648438,-359.37554931640625,957.0327758789062,101.56266021728516
848.8098754882812,847.1648559570312,-359.37554931640625,957.0327758789062,101.56266021728516
853.7448120117188,847.1648559570312,-359.37554931640625,957.0327758789062,105.46891784667969
853.7448120117188,847.1648559570312,-359.37554931640625,964.8452758789062,105.46891784667969
848.8098754882812,843.8749389648438,-359.37554931640625,964.8452758789062,105.46891784667969
848.8098754882812,843.8749389648438,-359.37554931640625,957.0327758789062,113.28142547607422
843.8749389648438,852.0997924804688,-363.2818298339844,960.9390258789062,105.46891784667969
842.2299194335938,847.1648559570312,-355.46929931640625,968.7515258789062,109.37516784667969
848.8098754882812,852.0997924804688,-355.46929931640625,960.9390258789062,109.37516784667969
848.8098754882812,852.0997924804688,-355.46929931640625,964.8452758789062,109.37516784667969
845.5198974609375,845.5198974609375,-355.46929931640625,964.8452758789062,109.37516784667969
847.1648559570312,855.3897705078125,-363.2818298339844,953.12646484375,109.37516784667969
840.5849609375,852.0997924804688,-359.37554931640625,964.8452758789062,109.37516784667969
840.5849609375,852.0997924804688,-363.2818298339844,964.8452758789062,105.46891784667969
840.5849609375,852.0997924804688,-359.37554931640625,960.9390258789062,105.46891784667969
845.5198974609375,858.6797485351562,-359.37554931640625,957.0327758789062,105.46891784667969
843.8749389648438,850.454833984375,-359.37554931640625,964.8452758789062,109.37516784667969
845.5198974609375,855.3897705078125,-359.37554931640625,964.8452758789062,109.37516784667969
845.5198974609375,850.454833984375,-351.56304931640625,968.7515258789062,109.37516784667969
845.5198974609375,850.454833984375,-355.46929931640625,964.8452758789062,109.37516784667969
847.1648559570312,848.8098754882812,-355.46929931640625,964.8452758789062,109.37516784667969
852.0997924804688,855.3897705078125,-351.56304931640625,960.9390258789062,109.37516784667969
852.0997924804688,855.3897705078125,-355.46929931640625,960.9390258789062,105.46891784667969
845.5198974609375,857.0347290039062,-355.46929931640625,960.9390258789062,105.46891784667969
843.8749389648438,845.5198974609375,-359.37554931640625,957.0327758789062,105.46891784667969
843.8749389648438,845.5198974609375,-359.37554931640625,960.9390258789062,113.28142547607422
847.1648559570312,843.8749389648438,-359.37554931640625,953.12646484375,109.37516784667969
845.5198974609375,842.2299194335938,-355.46929931640625,960.9390258789062,109.37516784667969
850.454833984375,853.7448120117188,-367.1880798339844,949.22021484375,105.46891784667969
850.454833984375,853.7448120117188,-351.56304931640625,953.12646484375,117.18768310546876
848.8098754882812,860.32470703125,-351.56304931640625,953.12646484375,117.18768310546876
848.8098754882812,842.2299194335938,-351.56304931640625,968.7515258789062,117.18768310546876
843.8749389648438,834.0050048828125,-359.37554931640625,953.12646484375,113.28142547607422
843.8749389648438,834.0050048828125,-363.2818298339844,953.12646484375,117.18768310546876
842.2299194335938,845.5198974609375,-363.2818298339844,960.9390258789062,117.18768310546876
842.2299194335938,834.0050048828125,-355.46929931640625,964.8452758789062,125.0001983642578
848.8098754882812,858.6797485351562,-355.46929931640625,960.9390258789062,125.0001983642578
845.5198974609375,848.8098754882812,-355.46929931640625,964.8452758789062,121.09394073486328
842.2299194335938,848.8098754882812,-363.2818298339844,960.9390258789062,113.28142547607422
845.5198974609375,855.3897705078125,-363.2818298339844,960.9390258789062,113.28142547607422
847.1648559570312,842.2299194335938,-351.56304931640625,957.0327758789062,117.18768310546876
847.1648559570312,842.2299194335938,-355.46929931640625,968.7515258789062,113.28142547607422
848.8098754882812,835.6500244140625,-347.65679931640625,964.8452758789062,113.28142547607422
843.8749389648438,840.5849609375,-359.37554931640625,957.0327758789062,113.28142547607422
843.8749389648438,840.5849609375,-359.37554931640625,964.8452758789062,113.28142547607422
843.8749389648438,840.5849609375,-355.46929931640625,960.9390258789062,113.28142547607422
843.8749389648438,843.8749389648438,-355.46929931640625,964.8452758789062,117.18768310546876
843.8749389648438,843.8749389648438,-355.46929931640625,964.8452758789062,121.09394073486328
843.8749389648438,843.8749389648438,-355.46929931640625,960.9390258789062,117.18768310546876
845.5198974609375,858.6797485351562,-355.46929931640625,960.9390258789062,117.18768310546876
845.5198974609375,847.1648559570312,-363.2818298339844,960.9390258789062,121.09394073486328
855.3897705078125,855.3897705078125,-359.37554931640625,960.9390258789062,121.09394073486328
847.1648559570312,834.0050048828125,-359.37554931640625,964.8452758789062,117.18768310546876
847.1648559570312,834.0050048828125,-363.2818298339844,957.0327758789062,113.28142547607422
857.0347290039062,837.2949829101562,-355.46929931640625,953.12646484375,117.18768310546876
865.2596435546875,827.4251098632812,-355.46929931640625,968.7515258789062,117.18768310546876
865.2596435546875,827.4251098632812,-355.46929931640625,964.8452758789062,117.18768310546876
863.6146850585938,832.3600463867188,-351.56304931640625,960.9390258789062,121.09394073486328
860.32470703125,848.8098754882812,-355.46929931640625,957.0327758789062,117.18768310546876
853.7448120117188,850.454833984375,-359.37554931640625,957.0327758789062,117.18768310546876
855.3897705078125,848.8098754882812,-363.2818298339844,957.0327758789062,113.28142547607422
855.3897705078125,848.8098754882812,-359.37554931640625,960.9390258789062,117.18768310546876
855.3897705078125,848.8098754882812,-359.37554931640625,964.8452758789062,113.28142547607422
845.5198974609375,845.5198974609375,-355.46929931640625,964.8452758789062,117.18768310546876
848.8098754882812,847.1648559570312,-355.46929931640625,957.0327758789062,117.18768310546876
840.5849609375,838.9400024414062,-359.37554931640625,960.9390258789062,117.18768310546876
840.5849609375,838.9400024414062,-359.37554931640625,964.8452758789062,117.18768310546876
840.5849609375,852.0997924804688,-359.37554931640625,964.8452758789062,117.18768310546876
840.5849609375,845.5198974609375,-363.2818298339844,957.0327758789062,117.18768310546876
840.5849609375,845.5198974609375,-355.46929931640625,957.0327758789062,121.09394073486328
840.5849609375,845.5198974609375,-363.2818298339844,960.9390258789062,113.28142547607422
842.2299194335938,848.8098754882812,-355.46929931640625,953.12646484375,121.09394073486328
842.2299194335938,848.8098754882812,-355.46929931640625,964.8452758789062,117.18768310546876
847.1648559570312,847.1648559570312,-355.46929931640625,964.8452758789062,117.18768310546876
853.7448120117188,857.0347290039062,-351.56304931640625,964.8452758789062,121.09394073486328
853.7448120117188,857.0347290039062,-355.46929931640625,960.9390258789062,117.18768310546876
852.0997924804688,852.0997924804688,-355.46929931640625,957.0327758789062,117.18768310546876
848.8098754882812,843.8749389648438,-363.2818298339844,957.0327758789062,117.18768310546876
848.8098754882812,843.8749389648438,-367.1880798339844,960.9390258789062,117.18768310546876
843.8749389648438,852.0997924804688,-367.1880798339844,960.9390258789062,117.18768310546876
842.2299194335938,837.2949829101562,-355.46929931640625,964.8452758789062,117.18768310546876
852.0997924804688,840.5849609375,-355.46929931640625,964.8452758789062,121.09394073486328
852.0997924804688,847.1648559570312,-351.56304931640625,957.0327758789062,117.18768310546876
852.0997924804688,847.1648559570312,-355.46929931640625,960.9390258789062,117.18768310546876
852.0997924804688,847.1648559570312,-359.37554931640625,960.9390258789062,117.18768310546876
847.1648559570312,863.6146850585938,-355.46929931640625,960.9390258789062,117.18768310546876
847.1648559570312,863.6146850585938,-355.46929931640625,960.9390258789062,121.09394073486328
847.1648559570312,857.0347290039062,-355.46929931640625,960.9390258789062,121.09394073486328
852.0997924804688,855.3897705078125,-355.46929931640625,964.8452758789062,121.09394073486328
852.0997924804688,855.3897705078125,-359.37554931640625,964.8452758789062,117.18768310546876
847.1648559570312,850.454833984375,-355.46929931640625,968.7515258789062,117.18768310546876
850.454833984375,838.9400024414062,-355.46929931640625,960.9390258789062,121.09394073486328
850.454833984375,838.9400024414062,-355.46929931640625,957.0327758789062,117.18768310546876
845.5198974609375,855.3897705078125,-355.46929931640625,957.0327758789062,117.18768310546876
845.5198974609375,853.7448120117188,-355.46929931640625,964.8452758789062,117.18768310546876
845.5198974609375,853.7448120117188,-355.46929931640625,960.9390258789062,121.09394073486328
848.8098754882812,848.8098754882812,-355.46929931640625,960.9390258789062,121.09394073486328
852.0997924804688,866.9046630859375,-359.37554931640625,960.9390258789062,121.09394073486328
852.0997924804688,863.6146850585938,-355.46929931640625,960.9390258789062,125.0001983642578
847.1648559570312,852.0997924804688,-363.2818298339844,953.12646484375,117.18768310546876
848.8098754882812,866.9046630859375,-359.37554931640625,968.7515258789062,121.09394073486328
848.8098754882812,860.32470703125,-351.56304931640625,957.0327758789062,125.0001983642578
848.8098754882812,860.32470703125,-355.46929931640625,953.12646484375,117.18768310546876
848.8098754882812,860.32470703125,-359.37554931640625,953.12646484375,117.18768310546876
848.8098754882812,863.6146850585938,-359.37554931640625,953.12646484375,117.18768310546876
847.1648559570312,858.6797485351562,-363.2818298339844,957.0327758789062,117.18768310546876
847.1648559570312,858.6797485351562,-355.46929931640625,960.9390258789062,121.09394073486328
847.1648559570312,852.0997924804688,-355.46929931640625,964.8452758789062,125.0001983642578
850.454833984375,847.1648559570312,-359.37554931640625,957.0327758789062,121.09394073486328
855.3897705078125,852.0997924804688,-359.37554931640625,957.0327758789062,121.09394073486328
852.0997924804688,843.8749389648438,-359.37554931640625,960.9390258789062,125.0001983642578
852.0997924804688,843.8749389648438,-355.46929931640625,960.9390258789062,128.90644836425778
848.8098754882812,857.0347290039062,-355.46929931640625,960.9390258789062,132.81271362304688
837.2949829101562,866.9046630859375,-355.46929931640625,960.9390258789062,128.90644836425778
837.2949829101562,866.9046630859375,-355.46929931640625,953.12646484375,132.81271362304688
840.5849609375,853.7448120117188,-355.46929931640625,953.12646484375,132.81271362304688
842.2299194335938,857.0347290039062,-351.56304931640625,972.6577758789062,128.90644836425778
842.2299194335938,857.0347290039062,-351.56304931640625,968.7515258789062,128.90644836425778
840.5849609375,855.3897705078125,-351.56304931640625,960.9390258789062,128.90644836425778
845.5198974609375,860.32470703125,-355.46929931640625,953.12646484375,128.90644836425778
853.7448120117188,863.6146850585938,-355.46929931640625,957.0327758789062,128.90644836425778
853.7448120117188,863.6146850585938,-355.46929931640625,964.8452758789062,128.90644836425778
848.8098754882812,858.6797485351562,-355.46929931640625,968.7515258789062,128.90644836425778
848.8098754882812,860.32470703125,-355.46929931640625,957.0327758789062,125.0001983642578
848.8098754882812,860.32470703125,-359.37554931640625,957.0327758789062,125.0001983642578
845.5198974609375,852.0997924804688,-359.37554931640625,957.0327758789062,125.0001983642578
848.8098754882812,848.8098754882812,-355.46929931640625,957.0327758789062,125.0001983642578
848.8098754882812,848.8098754882812,-355.46929931640625,957.0327758789062,128.90644836425778
840.5849609375,852.0997924804688,-355.46929931640625,957.0327758789062,128.90644836425778
840.5849609375,852.0997924804688,-355.46929931640625,964.8452758789062,128.90644836425778
840.5849609375,852.0997924804688,-355.46929931640625,957.0327758789062,132.81271362304688
847.1648559570312,850.454833984375,-359.37554931640625,957.0327758789062,125.0001983642578
847.1648559570312,850.454833984375,-367.1880798339844,957.0327758789062,125.0001983642578
847.1648559570312,850.454833984375,-351.56304931640625,953.12646484375,132.81271362304688
852.0997924804688,850.454833984375,-351.56304931640625,957.0327758789062,128.90644836425778
848.8098754882812,865.2596435546875,-355.46929931640625,957.0327758789062,125.0001983642578
850.454833984375,853.7448120117188,-363.2818298339844,957.0327758789062,125.0001983642578
850.454833984375,853.7448120117188,-359.37554931640625,964.8452758789062,125.0001983642578
848.8098754882812,860.32470703125,-359.37554931640625,964.8452758789062,125.0001983642578
847.1648559570312,853.7448120117188,-359.37554931640625,960.9390258789062,128.90644836425778
845.5198974609375,861.9697265625,-359.37554931640625,960.9390258789062,128.90644836425778
843.8749389648438,858.6797485351562,-355.46929931640625,960.9390258789062,132.81271362304688
850.454833984375,861.9697265625,-363.2818298339844,957.0327758789062,128.90644836425778
848.8098754882812,868.5496215820312,-351.56304931640625,957.0327758789062,132.81271362304688
848.8098754882812,868.5496215820312,-355.46929931640625,957.0327758789062,132.81271362304688
847.1648559570312,865.2596435546875,-355.46929931640625,957.0327758789062,132.81271362304688
852.0997924804688,860.32470703125,-359.37554931640625,957.0327758789062,128.90644836425778
850.454833984375,855.3897705078125,-359.37554931640625,964.8452758789062,128.90644836425778
848.8098754882812,855.3897705078125,-359.37554931640625,964.8452758789062,128.90644836425778
852.0997924804688,866.9046630859375,-355.46929931640625,957.0327758789062,132.81271362304688
850.454833984375,873.4845581054688,-359.37554931640625,960.9390258789062,136.71896362304688
848.8098754882812,860.32470703125,-347.65679931640625,960.9390258789062,136.71896362304688
853.7448120117188,848.8098754882812,-355.46929931640625,960.9390258789062,132.81271362304688
853.7448120117188,848.8098754882812,-351.56304931640625,953.12646484375,136.71896362304688
847.1648559570312,855.3897705078125,-351.56304931640625,953.12646484375,136.71896362304688
848.8098754882812,852.0997924804688,-367.1880798339844,953.12646484375,128.90644836425778
850.454833984375,860.32470703125,-367.1880798339844,957.0327758789062,128.90644836425778
850.454833984375,860.32470703125,-359.37554931640625,960.9390258789062,128.90644836425778
852.0997924804688,860.32470703125,-359.37554931640625,960.9390258789062,128.90644836425778
852.0997924804688,860.32470703125,-359.37554931640625,957.0327758789062,132.81271362304688
852.0997924804688,853.7448120117188,-363.2818298339844,957.0327758789062,136.71896362304688
847.1648559570312,852.0997924804688,-359.37554931640625,960.9390258789062,136.71896362304688
847.1648559570312,852.0997924804688,-355.46929931640625,957.0327758789062,140.62521362304688
845.5198974609375,860.32470703125,-355.46929931640625,957.0327758789062,140.62521362304688
847.1648559570312,850.454833984375,-351.56304931640625,964.8452758789062,136.71896362304688
847.1648559570312,853.7448120117188,-355.46929931640625,964.8452758789062,136.71896362304688
848.8098754882812,850.454833984375,-359.37554931640625,957.0327758789062,132.81271362304688
848.8098754882812,850.454833984375,-363.2818298339844,953.12646484375,128.90644836425778
848.8098754882812,850.454833984375,-359.37554931640625,953.12646484375,128.90644836425778
848.8098754882812,860.32470703125,-363.2818298339844,957.0327758789062,128.90644836425778
843.8749389648438,860.32470703125,-359.37554931640625,957.0327758789062,136.71896362304688
843.8749389648438,860.32470703125,-359.37554931640625,964.8452758789062,132.81271362304688
845.5198974609375,858.6797485351562,-359.37554931640625,964.8452758789062,132.81271362304688
850.454833984375,861.9697265625,-359.37554931640625,953.12646484375,132.81271362304688
847.1648559570312,858.6797485351562,-363.2818298339844,957.0327758789062,132.81271362304688
847.1648559570312,858.6797485351562,-359.37554931640625,957.0327758789062,136.71896362304688
843.8749389648438,858.6797485351562,-355.46929931640625,957.0327758789062,136.71896362304688
847.1648559570312,860.32470703125,-359.37554931640625,960.9390258789062,136.71896362304688
847.1648559570312,860.32470703125,-359.37554931640625,957.0327758789062,132.81271362304688
852.0997924804688,853.7448120117188,-359.37554931640625,957.0327758789062,132.81271362304688
848.8098754882812,857.0347290039062,-359.37554931640625,957.0327758789062,132.81271362304688
848.8098754882812,857.0347290039062,-367.1880798339844,953.12646484375,128.90644836425778
842.2299194335938,850.454833984375,-359.37554931640625,953.12646484375,136.71896362304688
850.454833984375,861.9697265625,-359.37554931640625,968.7515258789062,136.71896362304688
850.454833984375,861.9697265625,-355.46929931640625,960.9390258789062,140.62521362304688
861.9697265625,837.2949829101562,-355.46929931640625,953.12646484375,136.71896362304688
863.6146850585938,838.9400024414062,-359.37554931640625,953.12646484375,132.81271362304688
857.0347290039062,847.1648559570312,-355.46929931640625,960.9390258789062,136.71896362304688
855.3897705078125,843.8749389648438,-359.37554931640625,964.8452758789062,132.81271362304688
852.0997924804688,857.0347290039062,-363.2818298339844,957.0327758789062,136.71896362304688
852.0997924804688,857.0347290039062,-359.37554931640625,960.9390258789062,136.71896362304688
847.1648559570312,850.454833984375,-359.37554931640625,960.9390258789062,136.71896362304688
848.8098754882812,852.0997924804688,-363.2818298339844,960.9390258789062,140.62521362304688
848.8098754882812,852.0997924804688,-359.37554931640625,960.9390258789062,136.71896362304688
848.8098754882812,865.2596435546875,-359.37554931640625,960.9390258789062,136.71896362304688
848.8098754882812,850.454833984375,-355.46929931640625,957.0327758789062,136.71896362304688
848.8098754882812,850.454833984375,-363.2818298339844,960.9390258789062,132.81271362304688
848.8098754882812,863.6146850585938,-363.2818298339844,960.9390258789062,132.81271362304688
845.5198974609375,858.6797485351562,-355.46929931640625,964.8452758789062,132.81271362304688
853.7448120117188,866.9046630859375,-355.46929931640625,960.9390258789062,132.81271362304688
853.7448120117188,866.9046630859375,-355.46929931640625,953.12646484375,132.81271362304688
853.7448120117188,866.9046630859375,-359.37554931640625,953.12646484375,128.90644836425778
837.2949829101562,861.9697265625,-355.46929931640625,960.9390258789062,132.81271362304688
842.2299194335938,848.8098754882812,-359.37554931640625,957.0327758789062,132.81271362304688
845.5198974609375,860.32470703125,-359.37554931640625,957.0327758789062,132.81271362304688
848.8098754882812,865.2596435546875,-359.37554931640625,960.9390258789062,132.81271362304688
848.8098754882812,865.2596435546875,-359.37554931640625,957.0327758789062,136.71896362304688
847.1648559570312,853.7448120117188,-359.37554931640625,957.0327758789062,136.71896362304688
842.2299194335938,847.1648559570312,-355.46929931640625,957.0327758789062,136.71896362304688
845.5198974609375,852.0997924804688,-359.37554931640625,964.8452758789062,136.71896362304688
845.5198974609375,853.7448120117188,-359.37554931640625,957.0327758789062,136.71896362304688
845.5198974609375,853.7448120117188,-359.37554931640625,953.12646484375,140.62521362304688
845.5198974609375,853.7448120117188,-355.46929931640625,957.0327758789062,140.62521362304688
848.8098754882812,857.0347290039062,-355.46929931640625,957.0327758789062,140.62521362304688
845.5198974609375,865.2596435546875,-359.37554931640625,953.12646484375,136.71896362304688
845.5198974609375,865.2596435546875,-359.37554931640625,957.0327758789062,136.71896362304688
852.0997924804688,865.2596435546875,-359.37554931640625,957.0327758789062,136.71896362304688
848.8098754882812,845.5198974609375,-359.37554931640625,960.9390258789062,136.71896362304688
848.8098754882812,845.5198974609375,-359.37554931640625,960.9390258789062,132.81271362304688
850.454833984375,852.0997924804688,-359.37554931640625,960.9390258789062,132.81271362304688
855.3897705078125,865.2596435546875,-359.37554931640625,960.9390258789062,132.81271362304688
857.0347290039062,868.5496215820312,-359.37554931640625,957.0327758789062,136.71896362304688
847.1648559570312,865.2596435546875,-359.37554931640625,953.12646484375,136.71896362304688
847.1648559570312,865.2596435546875,-355.46929931640625,957.0327758789062,140.62521362304688
848.8098754882812,850.454833984375,-363.2818298339844,953.12646484375,132.81271362304688
847.1648559570312,857.0347290039062,-355.46929931640625,960.9390258789062,140.62521362304688
847.1648559570312,857.0347290039062,-355.46929931640625,957.0327758789062,136.71896362304688
848.8098754882812,863.6146850585938,-355.46929931640625,957.0327758789062,136.71896362304688
847.1648559570312,863.6146850585938,-359.37554931640625,957.0327758789062,136.71896362304688
845.5198974609375,855.3897705078125,-359.37554931640625,957.0327758789062,136.71896362304688
837.2949829101562,891.579345703125,-355.46929931640625,957.0327758789062,140.62521362304688
855.3897705078125,850.454833984375,-363.2818298339844,957.0327758789062,144.53147888183594
855.3897705078125,861.9697265625,-363.2818298339844,953.12646484375,136.71896362304688
852.0997924804688,853.7448120117188,-359.37554931640625,957.0327758789062,140.62521362304688
848.8098754882812,852.0997924804688,-355.46929931640625,960.9390258789062,140.62521362304688
847.1648559570312,845.5198974609375,-355.46929931640625,960.9390258789062,140.62521362304688
848.8098754882812,857.0347290039062,-355.46929931640625,953.12646484375,140.62521362304688
850.454833984375,857.0347290039062,-355.46929931640625,960.9390258789062,136.71896362304688
852.0997924804688,858.6797485351562,-355.46929931640625,957.0327758789062,140.62521362304688
852.0997924804688,858.6797485351562,-355.46929931640625,960.9390258789062,140.62521362304688
847.1648559570312,850.454833984375,-355.46929931640625,960.9390258789062,140.62521362304688
848.8098754882812,855.3897705078125,-355.46929931640625,953.12646484375,140.62521362304688
845.5198974609375,845.5198974609375,-363.2818298339844,953.12646484375,140.62521362304688
845.5198974609375,845.5198974609375,-359.37554931640625,964.8452758789062,140.62521362304688
852.0997924804688,855.3897705078125,-359.37554931640625,964.8452758789062,140.62521362304688
848.8098754882812,857.0347290039062,-351.56304931640625,953.12646484375,140.62521362304688
850.454833984375,866.9046630859375,-359.37554931640625,949.22021484375,132.81271362304688
850.454833984375,866.9046630859375,-355.46929931640625,957.0327758789062,132.81271362304688
850.454833984375,857.0347290039062,-359.37554931640625,957.0327758789062,132.81271362304688
847.1648559570312,876.7745361328125,-351.56304931640625,960.9390258789062,136.71896362304688
855.3897705078125,870.194580078125,-355.46929931640625,960.9390258789062,132.81271362304688
847.1648559570312,850.454833984375,-355.46929931640625,957.0327758789062,132.81271362304688
847.1648559570312,850.454833984375,-355.46929931640625,957.0327758789062,136.71896362304688
855.3897705078125,870.194580078125,-355.46929931640625,957.0327758789062,136.71896362304688
855.3897705078125,870.194580078125,-355.46929931640625,960.9390258789062,136.71896362304688
855.3897705078125,870.194580078125,-355.46929931640625,953.12646484375,136.71896362304688
848.8098754882812,858.6797485351562,-355.46929931640625,957.0327758789062,136.71896362304688
852.0997924804688,865.2596435546875,-351.56304931640625,957.0327758789062,136.71896362304688
847.1648559570312,852.0997924804688,-351.56304931640625,957.0327758789062,136.71896362304688
850.454833984375,858.6797485351562,-351.56304931640625,960.9390258789062,140.62521362304688
852.0997924804688,858.6797485351562,-351.56304931640625,957.0327758789062,136.71896362304688
848.8098754882812,860.32470703125,-351.56304931640625,957.0327758789062,136.71896362304688
845.5198974609375,843.8749389648438,-355.46929931640625,953.12646484375,136.71896362304688
845.5198974609375,843.8749389648438,-355.46929931640625,957.0327758789062,136.71896362304688
843.8749389648438,852.0997924804688,-355.46929931640625,957.0327758789062,136.71896362304688
855.3897705078125,837.2949829101562,-355.46929931640625,957.0327758789062,136.71896362304688
855.3897705078125,837.2949829101562,-355.46929931640625,957.0327758789062,132.81271362304688
853.7448120117188,835.6500244140625,-355.46929931640625,957.0327758789062,132.81271362304688
847.1648559570312,842.2299194335938,-351.56304931640625,957.0327758789062,132.81271362304688
847.1648559570312,842.2299194335938,-355.46929931640625,960.9390258789062,132.81271362304688
852.0997924804688,853.7448120117188,-351.56304931640625,960.9390258789062,132.81271362304688
852.0997924804688,853.7448120117188,-359.37554931640625,957.0327758789062,128.90644836425778
857.0347290039062,850.454833984375,-359.37554931640625,957.0327758789062,128.90644836425778
850.454833984375,855.3897705078125,-347.65679931640625,968.7515258789062,132.81271362304688
850.454833984375,855.3897705078125,-347.65679931640625,960.9390258789062,132.81271362304688
853.7448120117188,861.9697265625,-347.65679931640625,960.9390258789062,132.81271362304688
853.7448120117188,850.454833984375,-347.65679931640625,957.0327758789062,132.81271362304688
853.7448120117188,850.454833984375,-355.46929931640625,957.0327758789062,128.90644836425778
852.0997924804688,863.6146850585938,-359.37554931640625,960.9390258789062,132.81271362304688
852.0997924804688,853.7448120117188,-355.46929931640625,957.0327758789062,132.81271362304688
855.3897705078125,861.9697265625,-355.46929931640625,957.0327758789062,132.81271362304688
848.8098754882812,852.0997924804688,-355.46929931640625,957.0327758789062,132.81271362304688
848.8098754882812,852.0997924804688,-355.46929931640625,960.9390258789062,132.81271362304688
853.7448120117188,861.9697265625,-355.46929931640625,960.9390258789062,132.81271362304688
850.454833984375,843.8749389648438,-351.56304931640625,960.9390258789062,136.71896362304688
850.454833984375,843.8749389648438,-355.46929931640625,964.8452758789062,132.81271362304688
850.454833984375,843.8749389648438,-355.46929931640625,957.0327758789062,128.90644836425778
843.8749389648438,845.5198974609375,-347.65679931640625,957.0327758789062,136.71896362304688
843.8749389648438,845.5198974609375,-351.56304931640625,968.7515258789062,136.71896362304688
852.0997924804688,861.9697265625,-351.56304931640625,964.8452758789062,132.81271362304688
853.7448120117188,850.454833984375,-347.65679931640625,957.0327758789062,136.71896362304688
850.454833984375,840.5849609375,-351.56304931640625,957.0327758789062,136.71896362304688
852.0997924804688,845.5198974609375,-355.46929931640625,957.0327758789062,132.81271362304688
845.5198974609375,852.0997924804688,-355.46929931640625,960.9390258789062,132.81271362304688
845.5198974609375,852.0997924804688,-351.56304931640625,964.8452758789062,132.81271362304688
850.454833984375,848.8098754882812,-351.56304931640625,960.9390258789062,136.71896362304688
852.0997924804688,845.5198974609375,-355.46929931640625,953.12646484375,136.71896362304688
852.0997924804688,845.5198974609375,-359.37554931640625,957.0327758789062,136.71896362304688
852.0997924804688,847.1648559570312,-359.37554931640625,957.0327758789062,136.71896362304688
843.8749389648438,850.454833984375,-355.46929931640625,960.9390258789062,140.62521362304688
840.5849609375,838.9400024414062,-351.56304931640625,964.8452758789062,144.53147888183594
847.1648559570312,857.0347290039062,-351.56304931640625,960.9390258789062,140.62521362304688
852.0997924804688,860.32470703125,-359.37554931640625,957.0327758789062,136.71896362304688
850.454833984375,847.1648559570312,-347.65679931640625,964.8452758789062,140.62521362304688
855.3897705078125,852.0997924804688,-347.65679931640625,957.0327758789062,136.71896362304688
855.3897705078125,852.0997924804688,-351.56304931640625,957.0327758789062,136.71896362304688
857.0347290039062,847.1648559570312,-355.46929931640625,957.0327758789062,132.81271362304688
850.454833984375,842.2299194335938,-351.56304931640625,957.0327758789062,136.71896362304688
850.454833984375,842.2299194335938,-359.37554931640625,960.9390258789062,136.71896362304688
850.454833984375,842.2299194335938,-355.46929931640625,957.0327758789062,136.71896362304688
852.0997924804688,848.8098754882812,-351.56304931640625,960.9390258789062,136.71896362304688
852.0997924804688,845.5198974609375,-351.56304931640625,957.0327758789062,136.71896362304688
850.454833984375,852.0997924804688,-355.46929931640625,960.9390258789062,136.71896362304688
850.454833984375,847.1648559570312,-343.75054931640625,960.9390258789062,144.53147888183594
850.454833984375,847.1648559570312,-351.56304931640625,960.9390258789062,132.81271362304688
852.0997924804688,845.5198974609375,-351.56304931640625,960.9390258789062,132.81271362304688
852.0997924804688,845.5198974609375,-347.65679931640625,968.7515258789062,136.71896362304688
853.7448120117188,858.6797485351562,-347.65679931640625,960.9390258789062,136.71896362304688
853.7448120117188,847.1648559570312,-347.65679931640625,960.9390258789062,136.71896362304688
852.0997924804688,850.454833984375,-355.46929931640625,957.0327758789062,136.71896362304688
853.7448120117188,835.6500244140625,-351.56304931640625,960.9390258789062,140.62521362304688
853.7448120117188,835.6500244140625,-355.46929931640625,960.9390258789062,136.71896362304688
847.1648559570312,847.1648559570312,-355.46929931640625,957.0327758789062,136.71896362304688
847.1648559570312,847.1648559570312,-355.46929931640625,957.0327758789062,140.62521362304688
847.1648559570312,847.1648559570312,-351.56304931640625,960.9390258789062,140.62521362304688
843.8749389648438,837.2949829101562,-351.56304931640625,960.9390258789062,140.62521362304688
850.454833984375,852.0997924804688,-351.56304931640625,960.9390258789062,140.62521362304688
850.454833984375,852.0997924804688,-347.65679931640625,960.9390258789062,140.62521362304688
842.2299194335938,837.2949829101562,-347.65679931640625,960.9390258789062,144.53147888183594
842.2299194335938,837.2949829101562,-347.65679931640625,968.7515258789062,140.62521362304688
847.1648559570312,847.1648559570312,-347.65679931640625,968.7515258789062,140.62521362304688
848.8098754882812,852.0997924804688,-343.75054931640625,960.9390258789062,136.71896362304688
848.8098754882812,852.0997924804688,-347.65679931640625,957.0327758789062,136.71896362304688
848.8098754882812,857.0347290039062,-347.65679931640625,957.0327758789062,136.71896362304688
850.454833984375,855.3897705078125,-351.56304931640625,957.0327758789062,136.71896362304688
847.1648559570312,852.0997924804688,-355.46929931640625,960.9390258789062,136.71896362304688
847.1648559570312,852.0997924804688,-351.56304931640625,960.9390258789062,136.71896362304688
