EEG1,EEG2,Acc_X,Acc_Y,Acc_Z
618.5126342773438,631.6724243164062,-601.5634155273438,828.1262817382812,167.96900939941406
613.5776977539062,662.9270629882812,-597.6571655273438,832.0325317382812,167.96900939941406
606.9977416992188,712.2764892578125,-597.6571655273438,835.9387817382812,167.96900939941406
606.9977416992188,712.2764892578125,-597.6571655273438,828.1262817382812,167.96900939941406
615.22265625,633.3174438476562,-601.5634155273438,828.1262817382812,167.96900939941406
613.5776977539062,633.3174438476562,-589.8446655273438,832.0325317382812,164.06275939941406
618.5126342773438,626.7374877929688,-589.8446655273438,832.0325317382812,164.06275939941406
606.9977416992188,718.8563842773438,-597.6571655273438,828.1262817382812,164.06275939941406
606.9977416992188,718.8563842773438,-601.5634155273438,832.0325317382812,164.06275939941406
608.6427001953125,689.2467651367188,-601.5634155273438,832.0325317382812,164.06275939941406
606.9977416992188,613.5776977539062,-601.5634155273438,832.0325317382812,164.06275939941406
606.9977416992188,613.5776977539062,-601.5634155273438,828.1262817382812,167.96900939941406
606.9977416992188,613.5776977539062,-597.6571655273438,832.0325317382812,171.87527465820312
610.2877197265625,590.5479125976562,-597.6571655273438,832.0325317382812,171.87527465820312
603.707763671875,506.6539306640625,-601.5634155273438,828.1262817382812,171.87527465820312
625.092529296875,490.2041320800781,-601.5634155273438,828.1262817382812,167.96900939941406
621.8025512695312,490.2041320800781,-597.6571655273438,828.1262817382812,156.250244140625
615.22265625,569.1632080078125,-601.5634155273438,828.1262817382812,160.156494140625
608.6427001953125,549.4234619140625,-601.5634155273438,832.0325317382812,160.156494140625
616.8676147460938,608.6427001953125,-601.5634155273438,828.1262817382812,160.156494140625
605.352783203125,595.48291015625,-601.5634155273438,828.1262817382812,156.250244140625
605.352783203125,595.48291015625,-597.6571655273438,828.1262817382812,160.156494140625
598.7728271484375,542.843505859375,-597.6571655273438,828.1262817382812,160.156494140625
608.6427001953125,542.843505859375,-601.5634155273438,828.1262817382812,160.156494140625
602.0628051757812,598.7728271484375,-601.5634155273438,828.1262817382812,160.156494140625
615.22265625,559.2933349609375,-601.5634155273438,828.1262817382812,160.156494140625
661.2821044921875,552.71337890625,-601.5634155273438,828.1262817382812,160.156494140625
661.2821044921875,552.71337890625,-601.5634155273438,832.0325317382812,160.156494140625
682.6668701171875,579.0330810546875,-601.5634155273438,832.0325317382812,160.156494140625
616.8676147460938,526.3937377929689,-601.5634155273438,828.1262817382812,160.156494140625
605.352783203125,552.71337890625,-601.5634155273438,828.1262817382812,164.06275939941406
602.0628051757812,560.9382934570311,-601.5634155273438,828.1262817382812,160.156494140625
610.2877197265625,537.9085693359375,-601.5634155273438,828.1262817382812,160.156494140625
602.0628051757812,511.5888977050781,-601.5634155273438,828.1262817382812,160.156494140625
602.0628051757812,567.5181884765625,-601.5634155273438,828.1262817382812,164.06275939941406
606.9977416992188,574.09814453125,-601.5634155273438,828.1262817382812,164.06275939941406
606.9977416992188,495.1390686035156,-601.5634155273438,828.1262817382812,160.156494140625
598.7728271484375,666.217041015625,-597.6571655273438,828.1262817382812,164.06275939941406
598.7728271484375,666.217041015625,-601.5634155273438,828.1262817382812,164.06275939941406
608.6427001953125,666.217041015625,-601.5634155273438,828.1262817382812,160.156494140625
606.9977416992188,588.9029541015625,-601.5634155273438,828.1262817382812,164.06275939941406
606.9977416992188,588.9029541015625,-597.6571655273438,828.1262817382812,164.06275939941406
626.7374877929688,676.0869140625,-601.5634155273438,832.0325317382812,152.343994140625
626.7374877929688,676.0869140625,-601.5634155273438,828.1262817382812,152.343994140625
639.8973388671875,646.477294921875,-601.5634155273438,828.1262817382812,144.53147888183594
633.3174438476562,667.8619995117188,-601.5634155273438,832.0325317382812,144.53147888183594
630.0274658203125,651.4122314453125,-597.6571655273438,828.1262817382812,148.43772888183594
634.96240234375,648.1222534179688,-601.5634155273438,832.0325317382812,144.53147888183594
618.5126342773438,636.607421875,-601.5634155273438,832.0325317382812,144.53147888183594
608.6427001953125,575.7431030273438,-601.5634155273438,832.0325317382812,144.53147888183594
603.707763671875,562.583251953125,-601.5634155273438,832.0325317382812,148.43772888183594
603.707763671875,674.4419555664062,-601.5634155273438,835.9387817382812,144.53147888183594
603.707763671875,674.4419555664062,-597.6571655273438,832.0325317382812,148.43772888183594
605.352783203125,625.092529296875,-601.5634155273438,828.1262817382812,144.53147888183594
631.6724243164062,730.3712768554688,-601.5634155273438,832.0325317382812,144.53147888183594
623.4475708007812,631.6724243164062,-597.6571655273438,828.1262817382812,148.43772888183594
623.4475708007812,631.6724243164062,-601.5634155273438,828.1262817382812,148.43772888183594
634.96240234375,598.7728271484375,-601.5634155273438,832.0325317382812,148.43772888183594
643.1873168945312,606.9977416992188,-597.6571655273438,832.0325317382812,148.43772888183594
643.1873168945312,606.9977416992188,-601.5634155273438,832.0325317382812,144.53147888183594
643.1873168945312,606.9977416992188,-601.5634155273438,828.1262817382812,148.43772888183594
649.7672119140625,606.9977416992188,-601.5634155273438,828.1262817382812,148.43772888183594
666.217041015625,606.9977416992188,-601.5634155273438,832.0325317382812,148.43772888183594
677.7318725585938,646.477294921875,-601.5634155273438,832.0325317382812,148.43772888183594
661.2821044921875,620.1575927734375,-601.5634155273438,828.1262817382812,148.43772888183594
661.2821044921875,620.1575927734375,-601.5634155273438,828.1262817382812,152.343994140625
667.8619995117188,672.7969360351562,-601.5634155273438,828.1262817382812,148.43772888183594
676.0869140625,725.4363403320312,-601.5634155273438,832.0325317382812,148.43772888183594
667.8619995117188,735.3062133789062,-601.5634155273438,828.1262817382812,148.43772888183594
676.0869140625,682.6668701171875,-601.5634155273438,828.1262817382812,152.343994140625
676.0869140625,682.6668701171875,-601.5634155273438,832.0325317382812,152.343994140625
674.4419555664062,708.9865112304688,-601.5634155273438,832.0325317382812,152.343994140625
687.601806640625,682.6668701171875,-601.5634155273438,828.1262817382812,148.43772888183594
697.4716796875,751.7560424804688,-601.5634155273438,832.0325317382812,148.43772888183594
697.4716796875,646.477294921875,-597.6571655273438,832.0325317382812,148.43772888183594
704.0515747070312,674.4419555664062,-597.6571655273438,828.1262817382812,148.43772888183594
702.4066162109375,595.48291015625,-601.5634155273438,828.1262817382812,152.343994140625
702.4066162109375,595.48291015625,-601.5634155273438,832.0325317382812,148.43772888183594
712.2764892578125,621.8025512695312,-601.5634155273438,832.0325317382812,148.43772888183594
689.2467651367188,674.4419555664062,-601.5634155273438,828.1262817382812,152.343994140625
694.1817016601562,700.7615966796875,-601.5634155273438,832.0325317382812,148.43772888183594
699.1166381835938,753.4010009765625,-601.5634155273438,828.1262817382812,148.43772888183594
704.0515747070312,621.8025512695312,-601.5634155273438,828.1262817382812,148.43772888183594
705.6965942382812,674.4419555664062,-601.5634155273438,828.1262817382812,148.43772888183594
710.6315307617188,753.4010009765625,-601.5634155273438,828.1262817382812,148.43772888183594
718.8563842773438,779.720703125,-601.5634155273438,832.0325317382812,148.43772888183594
708.9865112304688,773.1407470703125,-601.5634155273438,832.0325317382812,148.43772888183594
705.6965942382812,746.8211059570312,-601.5634155273438,832.0325317382812,152.343994140625
720.5014038085938,694.1817016601562,-597.6571655273438,832.0325317382812,148.43772888183594
720.5014038085938,694.1817016601562,-601.5634155273438,832.0325317382812,148.43772888183594
723.7913208007812,746.8211059570312,-601.5634155273438,828.1262817382812,148.43772888183594
708.9865112304688,700.7615966796875,-601.5634155273438,828.1262817382812,148.43772888183594
720.5014038085938,764.9158325195312,-601.5634155273438,828.1262817382812,148.43772888183594
694.1817016601562,712.2764892578125,-601.5634155273438,828.1262817382812,148.43772888183594
690.8917236328125,633.3174438476562,-597.6571655273438,828.1262817382812,152.343994140625
695.82666015625,633.3174438476562,-597.6571655273438,828.1262817382812,160.156494140625
694.1817016601562,633.3174438476562,-593.7509155273438,835.9387817382812,160.156494140625
700.7615966796875,685.956787109375,-601.5634155273438,828.1262817382812,160.156494140625
728.726318359375,748.466064453125,-601.5634155273438,828.1262817382812,148.43772888183594
705.6965942382812,602.0628051757812,-582.0321655273438,828.1262817382812,152.343994140625
705.6965942382812,602.0628051757812,-597.6571655273438,835.9387817382812,152.343994140625
850.454833984375,743.5311279296875,-23.437536239624023,984.3765258789062,304.68798828125
853.7448120117188,753.4010009765625,-31.25004959106445,972.6577758789062,308.59423828125
852.0997924804688,769.850830078125,-19.531280517578125,972.6577758789062,316.40673828125
852.0997924804688,769.850830078125,-19.531280517578125,976.5640258789062,308.59423828125
852.0997924804688,769.850830078125,-27.343791961669922,980.4702758789062,304.68798828125
857.0347290039062,784.6556396484375,-27.343791961669922,976.5640258789062,308.59423828125
857.0347290039062,784.6556396484375,-19.531280517578125,968.7515258789062,312.50048828125
857.0347290039062,784.6556396484375,-15.625024795532227,964.8452758789062,320.31298828125
868.5496215820312,787.945556640625,-23.437536239624023,972.6577758789062,324.2192687988281
868.5496215820312,787.945556640625,-27.343791961669922,976.5640258789062,328.1255187988281
868.5496215820312,787.945556640625,-35.15630340576172,984.3765258789062,328.1255187988281
847.1648559570312,778.07568359375,-27.343791961669922,976.5640258789062,328.1255187988281
860.32470703125,779.720703125,-35.15630340576172,976.5640258789062,316.40673828125
860.32470703125,779.720703125,-39.06256103515625,988.2827758789062,308.59423828125
855.3897705078125,779.720703125,-35.15630340576172,976.5640258789062,308.59423828125
871.839599609375,756.6909790039062,-27.343791961669922,968.7515258789062,320.31298828125
866.9046630859375,779.720703125,-23.437536239624023,984.3765258789062,304.68798828125
866.9046630859375,773.1407470703125,-23.437536239624023,972.6577758789062,304.68798828125
866.9046630859375,773.1407470703125,-23.437536239624023,968.7515258789062,296.8754577636719
875.1295166015625,733.6612548828125,-23.437536239624023,968.7515258789062,296.8754577636719
868.5496215820312,692.5367431640625,-27.343791961669922,968.7515258789062,296.8754577636719
868.5496215820312,692.5367431640625,-27.343791961669922,964.8452758789062,308.59423828125
883.3544311523438,506.6539306640625,-19.531280517578125,980.4702758789062,285.1567077636719
883.3544311523438,506.6539306640625,-19.531280517578125,980.4702758789062,273.4379272460937
883.3544311523438,574.09814453125,-23.437536239624023,980.4702758789062,269.5316772460937
878.4194946289062,575.7431030273438,-39.06256103515625,1003.9078369140624,273.4379272460937
893.2243041992188,625.092529296875,-46.87507247924805,996.0953369140624,273.4379272460937
893.2243041992188,625.092529296875,-46.87507247924805,996.0953369140624,269.5316772460937
893.2243041992188,625.092529296875,-46.87507247924805,988.2827758789062,265.6254272460937
898.1592407226562,671.1519775390625,-46.87507247924805,988.2827758789062,261.71914672851557
896.5142822265625,685.956787109375,-39.06256103515625,988.2827758789062,265.6254272460937
868.5496215820312,692.5367431640625,-31.25004959106445,984.3765258789062,273.4379272460937
886.6444091796875,689.2467651367188,-31.25004959106445,1007.8140869140624,265.6254272460937
891.579345703125,712.2764892578125,-27.343791961669922,1015.6265869140624,257.81289672851557
891.579345703125,712.2764892578125,-23.437536239624023,1003.9078369140624,246.09413146972656
898.1592407226562,733.6612548828125,-39.06256103515625,1007.8140869140624,214.84408569335938
898.1592407226562,733.6612548828125,0.0,984.3765258789062,214.84408569335938
883.3544311523438,842.2299194335938,-15.625024795532227,1003.9078369140624,273.4379272460937
889.9343872070312,834.0050048828125,3.9062561988830566,984.3765258789062,281.2504272460937
886.6444091796875,843.8749389648438,7.812512397766112,988.2827758789062,273.4379272460937
898.1592407226562,847.1648559570312,15.625024795532227,976.5640258789062,269.5316772460937
898.1592407226562,847.1648559570312,11.718768119812012,984.3765258789062,273.4379272460937
889.9343872070312,810.9752807617188,7.812512397766112,984.3765258789062,273.4379272460937
898.1592407226562,812.6203002929688,11.718768119812012,992.1890258789062,285.1567077636719
898.1592407226562,812.6203002929688,7.812512397766112,1003.9078369140624,285.1567077636719
898.1592407226562,812.6203002929688,3.9062561988830566,1000.0015869140624,281.2504272460937
898.1592407226562,812.6203002929688,3.9062561988830566,996.0953369140624,277.3441772460937
898.1592407226562,830.715087890625,3.9062561988830566,996.0953369140624,277.3441772460937
893.2243041992188,809.330322265625,-23.437536239624023,988.2827758789062,246.09413146972656
888.2893676757812,832.3600463867188,-27.343791961669922,992.1890258789062,246.09413146972656
880.064453125,814.2652587890625,-35.15630340576172,1000.0015869140624,230.4691162109375
894.8693237304688,840.5849609375,-35.15630340576172,1000.0015869140624,230.4691162109375
886.6444091796875,840.5849609375,-62.5000991821289,996.0953369140624,226.56285095214844
886.6444091796875,840.5849609375,-70.31260681152344,1000.0015869140624,226.56285095214844
886.6444091796875,824.1351318359375,-70.31260681152344,996.0953369140624,226.56285095214844
886.6444091796875,824.1351318359375,-58.59384155273438,988.2827758789062,226.56285095214844
893.2243041992188,850.454833984375,-58.59384155273438,988.2827758789062,226.56285095214844
894.8693237304688,871.839599609375,-23.437536239624023,988.2827758789062,238.2816162109375
894.8693237304688,871.839599609375,-27.343791961669922,1000.0015869140624,242.18788146972656
883.3544311523438,853.7448120117188,-27.343791961669922,1000.0015869140624,242.18788146972656
883.3544311523438,850.454833984375,-42.96881866455078,992.1890258789062,230.4691162109375
883.3544311523438,850.454833984375,-54.687583923339844,1000.0015869140624,230.4691162109375
889.9343872070312,875.1295166015625,-62.5000991821289,1007.8140869140624,226.56285095214844
889.9343872070312,875.1295166015625,-42.96881866455078,1000.0015869140624,230.4691162109375
891.579345703125,845.5198974609375,-42.96881866455078,1000.0015869140624,230.4691162109375
888.2893676757812,835.6500244140625,-42.96881866455078,996.0953369140624,234.3753662109375
888.2893676757812,835.6500244140625,-35.15630340576172,1000.0015869140624,234.3753662109375
888.2893676757812,835.6500244140625,-39.06256103515625,996.0953369140624,230.4691162109375
876.7745361328125,832.3600463867188,-39.06256103515625,996.0953369140624,230.4691162109375
870.194580078125,834.0050048828125,-35.15630340576172,996.0953369140624,234.3753662109375
870.194580078125,834.0050048828125,-31.25004959106445,992.1890258789062,234.3753662109375
875.1295166015625,868.5496215820312,-35.15630340576172,1000.0015869140624,230.4691162109375
876.7745361328125,847.1648559570312,-39.06256103515625,1000.0015869140624,230.4691162109375
893.2243041992188,837.2949829101562,-35.15630340576172,996.0953369140624,234.3753662109375
893.2243041992188,837.2949829101562,-39.06256103515625,1003.9078369140624,234.3753662109375
876.7745361328125,822.4901733398438,-39.06256103515625,1003.9078369140624,234.3753662109375
881.70947265625,860.32470703125,-39.06256103515625,1003.9078369140624,230.4691162109375
881.70947265625,860.32470703125,-39.06256103515625,996.0953369140624,230.4691162109375
881.70947265625,860.32470703125,-39.06256103515625,1003.9078369140624,226.56285095214844
886.6444091796875,842.2299194335938,-42.96881866455078,996.0953369140624,222.65660095214844
886.6444091796875,842.2299194335938,-31.25004959106445,980.4702758789062,230.4691162109375
886.6444091796875,842.2299194335938,-27.343791961669922,996.0953369140624,226.56285095214844
888.2893676757812,830.715087890625,-27.343791961669922,996.0953369140624,226.56285095214844
888.2893676757812,830.715087890625,-27.343791961669922,1000.0015869140624,230.4691162109375
894.8693237304688,871.839599609375,-42.96881866455078,1000.0015869140624,226.56285095214844
894.8693237304688,871.839599609375,-39.06256103515625,996.0953369140624,226.56285095214844
889.9343872070312,830.715087890625,-39.06256103515625,996.0953369140624,226.56285095214844
886.6444091796875,838.9400024414062,-31.25004959106445,1007.8140869140624,234.3753662109375
888.2893676757812,825.7801513671875,-35.15630340576172,996.0953369140624,234.3753662109375
888.2893676757812,825.7801513671875,-35.15630340576172,1000.0015869140624,230.4691162109375
888.2893676757812,825.7801513671875,-35.15630340576172,996.0953369140624,226.56285095214844
888.2893676757812,875.1295166015625,-39.06256103515625,996.0953369140624,222.65660095214844
888.2893676757812,875.1295166015625,-39.06256103515625,1000.0015869140624,226.56285095214844
878.4194946289062,840.5849609375,-42.96881866455078,984.3765258789062,226.56285095214844
880.064453125,853.7448120117188,-39.06256103515625,996.0953369140624,226.56285095214844
889.9343872070312,847.1648559570312,-39.06256103515625,996.0953369140624,226.56285095214844
878.4194946289062,840.5849609375,-46.87507247924805,1007.8140869140624,230.4691162109375
878.4194946289062,840.5849609375,-42.96881866455078,1003.9078369140624,230.4691162109375
876.7745361328125,878.4194946289062,-42.96881866455078,1003.9078369140624,234.3753662109375
883.3544311523438,875.1295166015625,-42.96881866455078,1011.7203369140624,226.56285095214844
883.3544311523438,875.1295166015625,-42.96881866455078,1007.8140869140624,226.56285095214844
881.70947265625,845.5198974609375,-46.87507247924805,1003.9078369140624,218.75033569335938
863.6146850585938,865.2596435546875,-39.06256103515625,1003.9078369140624,183.5940399169922
863.6146850585938,865.2596435546875,-39.06256103515625,1003.9078369140624,179.68777465820312
876.7745361328125,886.6444091796875,-39.06256103515625,1003.9078369140624,175.78152465820312
876.7745361328125,852.0997924804688,-39.06256103515625,1003.9078369140624,175.78152465820312
876.7745361328125,852.0997924804688,-35.15630340576172,1000.0015869140624,175.78152465820312
863.6146850585938,848.8098754882812,-39.06256103515625,1003.9078369140624,179.68777465820312
863.6146850585938,848.8098754882812,-46.87507247924805,1007.8140869140624,187.5002899169922
870.194580078125,845.5198974609375,-46.87507247924805,1007.8140869140624,187.5002899169922
870.194580078125,829.070068359375,-46.87507247924805,1007.8140869140624,187.5002899169922
868.5496215820312,848.8098754882812,-46.87507247924805,1007.8140869140624,187.5002899169922
883.3544311523438,898.1592407226562,-46.87507247924805,1007.8140869140624,187.5002899169922
889.9343872070312,871.839599609375,-35.15630340576172,1003.9078369140624,195.31280517578125
891.579345703125,855.3897705078125,-39.06256103515625,1003.9078369140624,195.31280517578125
875.1295166015625,860.32470703125,-46.87507247924805,1007.8140869140624,199.21905517578125
868.5496215820312,881.70947265625,-46.87507247924805,1007.8140869140624,199.21905517578125
875.1295166015625,857.0347290039062,-35.15630340576172,1000.0015869140624,203.1253204345703
873.4845581054688,853.7448120117188,-42.96881866455078,1007.8140869140624,199.21905517578125
878.4194946289062,878.4194946289062,-42.96881866455078,1003.9078369140624,199.21905517578125
878.4194946289062,878.4194946289062,-46.87507247924805,1007.8140869140624,199.21905517578125
873.4845581054688,898.1592407226562,-46.87507247924805,1007.8140869140624,195.31280517578125
873.4845581054688,898.1592407226562,-42.96881866455078,1003.9078369140624,199.21905517578125
873.4845581054688,898.1592407226562,-42.96881866455078,1007.8140869140624,199.21905517578125
873.4845581054688,866.9046630859375,-42.96881866455078,1007.8140869140624,199.21905517578125
871.839599609375,855.3897705078125,-42.96881866455078,1007.8140869140624,199.21905517578125
865.2596435546875,845.5198974609375,-39.06256103515625,1003.9078369140624,195.31280517578125
876.7745361328125,898.1592407226562,-42.96881866455078,1007.8140869140624,203.1253204345703
876.7745361328125,898.1592407226562,-46.87507247924805,1007.8140869140624,203.1253204345703
860.32470703125,845.5198974609375,-46.87507247924805,1007.8140869140624,203.1253204345703
863.6146850585938,858.6797485351562,-54.687583923339844,1000.0015869140624,195.31280517578125
876.7745361328125,843.8749389648438,-46.87507247924805,1000.0015869140624,195.31280517578125
876.7745361328125,843.8749389648438,-39.06256103515625,1000.0015869140624,195.31280517578125
871.839599609375,824.1351318359375,-35.15630340576172,1011.7203369140624,199.21905517578125
868.5496215820312,868.5496215820312,-46.87507247924805,1003.9078369140624,195.31280517578125
873.4845581054688,843.8749389648438,-46.87507247924805,1000.0015869140624,199.21905517578125
873.4845581054688,871.839599609375,-50.78133010864258,1007.8140869140624,203.1253204345703
865.2596435546875,840.5849609375,-35.15630340576172,992.1890258789062,199.21905517578125
863.6146850585938,848.8098754882812,-46.87507247924805,1007.8140869140624,199.21905517578125
863.6146850585938,848.8098754882812,-39.06256103515625,1000.0015869140624,203.1253204345703
858.6797485351562,855.3897705078125,-39.06256103515625,1000.0015869140624,203.1253204345703
863.6146850585938,825.7801513671875,-42.96881866455078,988.2827758789062,207.0315704345703
866.9046630859375,873.4845581054688,-39.06256103515625,1000.0015869140624,210.93783569335938
863.6146850585938,819.2001953125,-50.78133010864258,1003.9078369140624,207.0315704345703
861.9697265625,875.1295166015625,-54.687583923339844,1007.8140869140624,203.1253204345703
870.194580078125,901.44921875,-50.78133010864258,1000.0015869140624,207.0315704345703
870.194580078125,901.44921875,-42.96881866455078,996.0953369140624,214.84408569335938
870.194580078125,901.44921875,-42.96881866455078,1007.8140869140624,210.93783569335938
870.194580078125,899.8042602539062,-42.96881866455078,1007.8140869140624,210.93783569335938
871.839599609375,870.194580078125,-46.87507247924805,1003.9078369140624,207.0315704345703
861.9697265625,888.2893676757812,-46.87507247924805,1003.9078369140624,207.0315704345703
860.32470703125,865.2596435546875,-46.87507247924805,1003.9078369140624,203.1253204345703
860.32470703125,865.2596435546875,-42.96881866455078,1000.0015869140624,199.21905517578125
868.5496215820312,871.839599609375,-42.96881866455078,1000.0015869140624,203.1253204345703
868.5496215820312,871.839599609375,-39.06256103515625,996.0953369140624,207.0315704345703
868.5496215820312,871.839599609375,-46.87507247924805,1003.9078369140624,203.1253204345703
868.5496215820312,871.839599609375,-50.78133010864258,1011.7203369140624,203.1253204345703
866.9046630859375,865.2596435546875,-50.78133010864258,1011.7203369140624,203.1253204345703
855.3897705078125,830.715087890625,-50.78133010864258,1011.7203369140624,203.1253204345703
873.4845581054688,912.964111328125,-46.87507247924805,1003.9078369140624,218.75033569335938
863.6146850585938,863.6146850585938,-54.687583923339844,1003.9078369140624,210.93783569335938
863.6146850585938,863.6146850585938,-54.687583923339844,1000.0015869140624,207.0315704345703
873.4845581054688,894.8693237304688,-54.687583923339844,1000.0015869140624,207.0315704345703
873.4845581054688,894.8693237304688,-54.687583923339844,1003.9078369140624,207.0315704345703
873.4845581054688,894.8693237304688,-50.78133010864258,1000.0015869140624,207.0315704345703
873.4845581054688,894.8693237304688,-46.87507247924805,1000.0015869140624,210.93783569335938
865.2596435546875,843.8749389648438,-46.87507247924805,1003.9078369140624,207.0315704345703
865.2596435546875,843.8749389648438,-46.87507247924805,1003.9078369140624,203.1253204345703
865.2596435546875,843.8749389648438,-42.96881866455078,1000.0015869140624,207.0315704345703
871.839599609375,863.6146850585938,-42.96881866455078,1000.0015869140624,207.0315704345703
865.2596435546875,873.4845581054688,-42.96881866455078,1000.0015869140624,210.93783569335938
865.2596435546875,873.4845581054688,-46.87507247924805,1003.9078369140624,210.93783569335938
870.194580078125,871.839599609375,-50.78133010864258,1003.9078369140624,210.93783569335938
871.839599609375,883.3544311523438,-50.78133010864258,1003.9078369140624,207.0315704345703
861.9697265625,848.8098754882812,-50.78133010864258,1007.8140869140624,199.21905517578125
863.6146850585938,843.8749389648438,-39.06256103515625,1003.9078369140624,214.84408569335938
858.6797485351562,871.839599609375,-39.06256103515625,1003.9078369140624,214.84408569335938
860.32470703125,878.4194946289062,-50.78133010864258,1000.0015869140624,210.93783569335938
858.6797485351562,847.1648559570312,-50.78133010864258,1000.0015869140624,210.93783569335938
861.9697265625,861.9697265625,-50.78133010864258,1007.8140869140624,207.0315704345703
861.9697265625,861.9697265625,-46.87507247924805,1003.9078369140624,210.93783569335938
860.32470703125,884.9994506835938,-46.87507247924805,1003.9078369140624,210.93783569335938
858.6797485351562,883.3544311523438,-46.87507247924805,1003.9078369140624,210.93783569335938
857.0347290039062,858.6797485351562,-46.87507247924805,1003.9078369140624,210.93783569335938
857.0347290039062,853.7448120117188,-46.87507247924805,1003.9078369140624,210.93783569335938
861.9697265625,886.6444091796875,-46.87507247924805,1003.9078369140624,207.0315704345703
855.3897705078125,848.8098754882812,-50.78133010864258,1000.0015869140624,210.93783569335938
860.32470703125,847.1648559570312,-50.78133010864258,1011.7203369140624,210.93783569335938
858.6797485351562,888.2893676757812,-50.78133010864258,1011.7203369140624,210.93783569335938
855.3897705078125,824.1351318359375,-42.96881866455078,1000.0015869140624,210.93783569335938
855.3897705078125,824.1351318359375,-46.87507247924805,1000.0015869140624,214.84408569335938
861.9697265625,886.6444091796875,-50.78133010864258,1007.8140869140624,214.84408569335938
855.3897705078125,843.8749389648438,-54.687583923339844,1000.0015869140624,207.0315704345703
866.9046630859375,868.5496215820312,-42.96881866455078,1000.0015869140624,214.84408569335938
866.9046630859375,871.839599609375,-42.96881866455078,1000.0015869140624,214.84408569335938
863.6146850585938,835.6500244140625,-42.96881866455078,1000.0015869140624,214.84408569335938
865.2596435546875,840.5849609375,-42.96881866455078,1000.0015869140624,210.93783569335938
875.1295166015625,852.0997924804688,-42.96881866455078,1003.9078369140624,214.84408569335938
873.4845581054688,810.9752807617188,-42.96881866455078,1003.9078369140624,214.84408569335938
876.7745361328125,847.1648559570312,-42.96881866455078,1003.9078369140624,214.84408569335938
871.839599609375,820.84521484375,-42.96881866455078,1003.9078369140624,214.84408569335938
871.839599609375,822.4901733398438,-42.96881866455078,1003.9078369140624,214.84408569335938
875.1295166015625,814.2652587890625,-27.343791961669922,1003.9078369140624,214.84408569335938
875.1295166015625,853.7448120117188,-27.343791961669922,1003.9078369140624,214.84408569335938
855.3897705078125,893.2243041992188,-35.15630340576172,1003.9078369140624,222.65660095214844
855.3897705078125,893.2243041992188,-46.87507247924805,996.0953369140624,214.84408569335938
843.8749389648438,855.3897705078125,-46.87507247924805,996.0953369140624,214.84408569335938
843.8749389648438,855.3897705078125,-39.06256103515625,988.2827758789062,218.75033569335938
850.454833984375,840.5849609375,-39.06256103515625,1007.8140869140624,214.84408569335938
838.9400024414062,875.1295166015625,-42.96881866455078,996.0953369140624,210.93783569335938
835.6500244140625,847.1648559570312,-42.96881866455078,996.0953369140624,210.93783569335938
835.6500244140625,873.4845581054688,-46.87507247924805,1003.9078369140624,218.75033569335938
847.1648559570312,881.70947265625,-46.87507247924805,1003.9078369140624,218.75033569335938
847.1648559570312,853.7448120117188,-42.96881866455078,996.0953369140624,218.75033569335938
845.5198974609375,857.0347290039062,-42.96881866455078,996.0953369140624,218.75033569335938
845.5198974609375,837.2949829101562,-46.87507247924805,1003.9078369140624,230.4691162109375
845.5198974609375,817.5552368164062,-50.78133010864258,992.1890258789062,222.65660095214844
845.5198974609375,817.5552368164062,-50.78133010864258,1003.9078369140624,222.65660095214844
845.5198974609375,848.8098754882812,-50.78133010864258,1003.9078369140624,222.65660095214844
855.3897705078125,893.2243041992188,-46.87507247924805,996.0953369140624,222.65660095214844
850.454833984375,873.4845581054688,-50.78133010864258,1000.0015869140624,222.65660095214844
845.5198974609375,858.6797485351562,-50.78133010864258,1000.0015869140624,222.65660095214844
852.0997924804688,847.1648559570312,-46.87507247924805,1000.0015869140624,230.4691162109375
852.0997924804688,847.1648559570312,-46.87507247924805,1003.9078369140624,230.4691162109375
853.7448120117188,829.070068359375,-46.87507247924805,1003.9078369140624,230.4691162109375
850.454833984375,838.9400024414062,-66.40635681152344,1011.7203369140624,218.75033569335938
850.454833984375,838.9400024414062,-50.78133010864258,988.2827758789062,218.75033569335938
850.454833984375,838.9400024414062,-39.06256103515625,988.2827758789062,226.56285095214844
860.32470703125,810.9752807617188,-39.06256103515625,988.2827758789062,226.56285095214844
865.2596435546875,880.064453125,-39.06256103515625,992.1890258789062,226.56285095214844
865.2596435546875,880.064453125,-42.96881866455078,1000.0015869140624,230.4691162109375
865.2596435546875,880.064453125,-50.78133010864258,1007.8140869140624,230.4691162109375
852.0997924804688,822.4901733398438,-50.78133010864258,1007.8140869140624,230.4691162109375
855.3897705078125,838.9400024414062,-54.687583923339844,1007.8140869140624,226.56285095214844
855.3897705078125,866.9046630859375,-50.78133010864258,996.0953369140624,218.75033569335938
855.3897705078125,860.32470703125,-50.78133010864258,1000.0015869140624,222.65660095214844
852.0997924804688,837.2949829101562,-50.78133010864258,996.0953369140624,226.56285095214844
857.0347290039062,847.1648559570312,-46.87507247924805,1003.9078369140624,234.3753662109375
857.0347290039062,847.1648559570312,-50.78133010864258,1003.9078369140624,234.3753662109375
840.5849609375,825.7801513671875,-50.78133010864258,996.0953369140624,234.3753662109375
847.1648559570312,870.194580078125,-54.687583923339844,996.0953369140624,222.65660095214844
847.1648559570312,870.194580078125,-58.59384155273438,1007.8140869140624,218.75033569335938
853.7448120117188,876.7745361328125,-46.87507247924805,1003.9078369140624,218.75033569335938
853.7448120117188,876.7745361328125,-42.96881866455078,1000.0015869140624,214.84408569335938
853.7448120117188,865.2596435546875,-42.96881866455078,992.1890258789062,218.75033569335938
847.1648559570312,840.5849609375,-42.96881866455078,996.0953369140624,218.75033569335938
853.7448120117188,878.4194946289062,-50.78133010864258,1000.0015869140624,222.65660095214844
847.1648559570312,898.1592407226562,-46.87507247924805,1000.0015869140624,226.56285095214844
852.0997924804688,853.7448120117188,-54.687583923339844,1003.9078369140624,222.65660095214844
840.5849609375,852.0997924804688,-50.78133010864258,1000.0015869140624,222.65660095214844
842.2299194335938,861.9697265625,-46.87507247924805,1003.9078369140624,222.65660095214844
845.5198974609375,881.70947265625,-58.59384155273438,996.0953369140624,222.65660095214844
857.0347290039062,891.579345703125,-42.96881866455078,1000.0015869140624,226.56285095214844
850.454833984375,884.9994506835938,-50.78133010864258,1000.0015869140624,214.84408569335938
852.0997924804688,889.9343872070312,-54.687583923339844,996.0953369140624,214.84408569335938
852.0997924804688,889.9343872070312,-50.78133010864258,996.0953369140624,214.84408569335938
852.0997924804688,889.9343872070312,-50.78133010864258,1000.0015869140624,218.75033569335938
852.0997924804688,889.9343872070312,-46.87507247924805,1000.0015869140624,222.65660095214844
845.5198974609375,878.4194946289062,-46.87507247924805,1000.0015869140624,222.65660095214844
848.8098754882812,845.5198974609375,-50.78133010864258,1000.0015869140624,222.65660095214844
848.8098754882812,893.2243041992188,-46.87507247924805,1003.9078369140624,226.56285095214844
852.0997924804688,896.5142822265625,-54.687583923339844,1003.9078369140624,222.65660095214844
852.0997924804688,848.8098754882812,-54.687583923339844,996.0953369140624,218.75033569335938
852.0997924804688,848.8098754882812,-46.87507247924805,1000.0015869140624,218.75033569335938
852.0997924804688,848.8098754882812,-46.87507247924805,1003.9078369140624,226.56285095214844
852.0997924804688,888.2893676757812,-42.96881866455078,1000.0015869140624,226.56285095214844
837.2949829101562,822.4901733398438,-54.687583923339844,1003.9078369140624,218.75033569335938
843.8749389648438,861.9697265625,-46.87507247924805,980.4702758789062,222.65660095214844
843.8749389648438,837.2949829101562,-46.87507247924805,1003.9078369140624,226.56285095214844
843.8749389648438,830.715087890625,-46.87507247924805,1003.9078369140624,226.56285095214844
852.0997924804688,853.7448120117188,-58.59384155273438,996.0953369140624,218.75033569335938
852.0997924804688,853.7448120117188,-54.687583923339844,1000.0015869140624,218.75033569335938
848.8098754882812,857.0347290039062,-42.96881866455078,996.0953369140624,218.75033569335938
848.8098754882812,894.8693237304688,-42.96881866455078,996.0953369140624,218.75033569335938
847.1648559570312,871.839599609375,-42.96881866455078,996.0953369140624,222.65660095214844
847.1648559570312,871.839599609375,-46.87507247924805,1000.0015869140624,218.75033569335938
847.1648559570312,871.839599609375,-50.78133010864258,996.0953369140624,222.65660095214844
852.0997924804688,876.7745361328125,-50.78133010864258,996.0953369140624,222.65660095214844
845.5198974609375,861.9697265625,-54.687583923339844,1000.0015869140624,222.65660095214844
850.454833984375,850.454833984375,-50.78133010864258,996.0953369140624,226.56285095214844
850.454833984375,850.454833984375,-39.06256103515625,992.1890258789062,226.56285095214844
850.454833984375,850.454833984375,-46.87507247924805,1003.9078369140624,222.65660095214844
850.454833984375,850.454833984375,-50.78133010864258,1000.0015869140624,222.65660095214844
843.8749389648438,835.6500244140625,-50.78133010864258,1003.9078369140624,222.65660095214844
850.454833984375,868.5496215820312,-50.78133010864258,1000.0015869140624,226.56285095214844
860.32470703125,881.70947265625,-46.87507247924805,996.0953369140624,222.65660095214844
850.454833984375,888.2893676757812,-46.87507247924805,996.0953369140624,222.65660095214844
847.1648559570312,848.8098754882812,-42.96881866455078,984.3765258789062,226.56285095214844
848.8098754882812,837.2949829101562,-42.96881866455078,984.3765258789062,226.56285095214844
845.5198974609375,880.064453125,-50.78133010864258,1000.0015869140624,226.56285095214844
847.1648559570312,848.8098754882812,-54.687583923339844,1000.0015869140624,222.65660095214844
838.9400024414062,866.9046630859375,-46.87507247924805,1000.0015869140624,222.65660095214844
840.5849609375,865.2596435546875,-46.87507247924805,1000.0015869140624,222.65660095214844
855.3897705078125,891.579345703125,-46.87507247924805,1000.0015869140624,222.65660095214844
843.8749389648438,868.5496215820312,-50.78133010864258,1000.0015869140624,222.65660095214844
848.8098754882812,825.7801513671875,-50.78133010864258,1000.0015869140624,226.56285095214844
848.8098754882812,825.7801513671875,-50.78133010864258,1003.9078369140624,226.56285095214844
847.1648559570312,843.8749389648438,-50.78133010864258,1003.9078369140624,226.56285095214844
842.2299194335938,840.5849609375,-50.78133010864258,1003.9078369140624,226.56285095214844
845.5198974609375,871.839599609375,-50.78133010864258,1003.9078369140624,226.56285095214844
842.2299194335938,824.1351318359375,-50.78133010864258,1000.0015869140624,218.75033569335938
848.8098754882812,876.7745361328125,-46.87507247924805,1000.0015869140624,222.65660095214844
845.5198974609375,866.9046630859375,-46.87507247924805,1000.0015869140624,222.65660095214844
843.8749389648438,837.2949829101562,-54.687583923339844,1003.9078369140624,222.65660095214844
848.8098754882812,893.2243041992188,-54.687583923339844,1000.0015869140624,222.65660095214844
848.8098754882812,873.4845581054688,-46.87507247924805,996.0953369140624,222.65660095214844
850.454833984375,852.0997924804688,-46.87507247924805,996.0953369140624,222.65660095214844
850.454833984375,852.0997924804688,-50.78133010864258,1000.0015869140624,218.75033569335938
850.454833984375,876.7745361328125,-50.78133010864258,1000.0015869140624,218.75033569335938
840.5849609375,843.8749389648438,-50.78133010864258,1000.0015869140624,218.75033569335938
842.2299194335938,843.8749389648438,-54.687583923339844,1000.0015869140624,218.75033569335938
842.2299194335938,843.8749389648438,-50.78133010864258,1000.0015869140624,222.65660095214844
845.5198974609375,829.070068359375,-46.87507247924805,1003.9078369140624,226.56285095214844
847.1648559570312,812.6203002929688,-54.687583923339844,996.0953369140624,222.65660095214844
845.5198974609375,857.0347290039062,-46.87507247924805,988.2827758789062,222.65660095214844
838.9400024414062,832.3600463867188,-46.87507247924805,1000.0015869140624,226.56285095214844
838.9400024414062,832.3600463867188,-50.78133010864258,1000.0015869140624,226.56285095214844
838.9400024414062,832.3600463867188,-54.687583923339844,1000.0015869140624,222.65660095214844
840.5849609375,873.4845581054688,-54.687583923339844,1000.0015869140624,222.65660095214844
840.5849609375,865.2596435546875,-54.687583923339844,996.0953369140624,218.75033569335938
843.8749389648438,838.9400024414062,-46.87507247924805,1000.0015869140624,222.65660095214844
848.8098754882812,853.7448120117188,-50.78133010864258,1003.9078369140624,222.65660095214844
853.7448120117188,858.6797485351562,-50.78133010864258,1003.9078369140624,222.65660095214844
850.454833984375,861.9697265625,-50.78133010864258,996.0953369140624,218.75033569335938
850.454833984375,861.9697265625,-50.78133010864258,996.0953369140624,222.65660095214844
845.5198974609375,858.6797485351562,-50.78133010864258,1003.9078369140624,222.65660095214844
852.0997924804688,840.5849609375,-50.78133010864258,996.0953369140624,222.65660095214844
835.6500244140625,814.2652587890625,-54.687583923339844,1011.7203369140624,218.75033569335938
835.6500244140625,814.2652587890625,-50.78133010864258,992.1890258789062,222.65660095214844
843.8749389648438,835.6500244140625,-50.78133010864258,992.1890258789062,222.65660095214844
835.6500244140625,825.7801513671875,-50.78133010864258,992.1890258789062,222.65660095214844
845.5198974609375,827.4251098632812,-54.687583923339844,1000.0015869140624,222.65660095214844
850.454833984375,860.32470703125,-46.87507247924805,996.0953369140624,222.65660095214844
852.0997924804688,840.5849609375,-46.87507247924805,1000.0015869140624,222.65660095214844
852.0997924804688,881.70947265625,-54.687583923339844,1000.0015869140624,222.65660095214844
848.8098754882812,834.0050048828125,-54.687583923339844,1000.0015869140624,222.65660095214844
843.8749389648438,822.4901733398438,-50.78133010864258,996.0953369140624,222.65660095214844
848.8098754882812,853.7448120117188,-46.87507247924805,1000.0015869140624,222.65660095214844
845.5198974609375,876.7745361328125,-46.87507247924805,1000.0015869140624,222.65660095214844
848.8098754882812,840.5849609375,-54.687583923339844,1003.9078369140624,222.65660095214844
843.8749389648438,863.6146850585938,-42.96881866455078,1003.9078369140624,222.65660095214844
842.2299194335938,837.2949829101562,-42.96881866455078,1003.9078369140624,222.65660095214844
848.8098754882812,881.70947265625,-54.687583923339844,1000.0015869140624,218.75033569335938
847.1648559570312,852.0997924804688,-54.687583923339844,1000.0015869140624,218.75033569335938
842.2299194335938,871.839599609375,-54.687583923339844,1000.0015869140624,218.75033569335938
840.5849609375,884.9994506835938,-42.96881866455078,996.0953369140624,222.65660095214844
840.5849609375,855.3897705078125,-50.78133010864258,1000.0015869140624,218.75033569335938
843.8749389648438,858.6797485351562,-50.78133010864258,1000.0015869140624,218.75033569335938
843.8749389648438,888.2893676757812,-50.78133010864258,1000.0015869140624,226.56285095214844
843.8749389648438,888.2893676757812,-46.87507247924805,996.0953369140624,222.65660095214844
840.5849609375,857.0347290039062,-46.87507247924805,996.0953369140624,222.65660095214844
847.1648559570312,870.194580078125,-54.687583923339844,1011.7203369140624,214.84408569335938
847.1648559570312,870.194580078125,-46.87507247924805,988.2827758789062,218.75033569335938
838.9400024414062,850.454833984375,-50.78133010864258,1000.0015869140624,222.65660095214844
842.2299194335938,838.9400024414062,-50.78133010864258,1000.0015869140624,222.65660095214844
842.2299194335938,876.7745361328125,-50.78133010864258,1000.0015869140624,222.65660095214844
850.454833984375,881.70947265625,-54.687583923339844,1000.0015869140624,222.65660095214844
847.1648559570312,866.9046630859375,-46.87507247924805,1003.9078369140624,222.65660095214844
847.1648559570312,866.9046630859375,-50.78133010864258,1000.0015869140624,218.75033569335938
847.1648559570312,866.9046630859375,-46.87507247924805,1000.0015869140624,222.65660095214844
842.2299194335938,883.3544311523438,-42.96881866455078,1000.0015869140624,222.65660095214844
848.8098754882812,825.7801513671875,-58.59384155273438,1000.0015869140624,222.65660095214844
848.8098754882812,825.7801513671875,-58.59384155273438,1007.8140869140624,218.75033569335938
857.0347290039062,880.064453125,-58.59384155273438,1007.8140869140624,218.75033569335938
863.6146850585938,873.4845581054688,-46.87507247924805,996.0953369140624,222.65660095214844
860.32470703125,822.4901733398438,-46.87507247924805,996.0953369140624,222.65660095214844
860.32470703125,822.4901733398438,-50.78133010864258,1003.9078369140624,222.65660095214844
863.6146850585938,861.9697265625,-50.78133010864258,1003.9078369140624,226.56285095214844
858.6797485351562,809.330322265625,-46.87507247924805,996.0953369140624,218.75033569335938
860.32470703125,873.4845581054688,-46.87507247924805,996.0953369140624,218.75033569335938
860.32470703125,876.7745361328125,-50.78133010864258,1000.0015869140624,218.75033569335938
860.32470703125,876.7745361328125,-42.96881866455078,1000.0015869140624,218.75033569335938
853.7448120117188,850.454833984375,-42.96881866455078,1000.0015869140624,218.75033569335938
853.7448120117188,809.330322265625,-42.96881866455078,1000.0015869140624,218.75033569335938
853.7448120117188,809.330322265625,-42.96881866455078,1000.0015869140624,214.84408569335938
853.7448120117188,809.330322265625,-42.96881866455078,996.0953369140624,218.75033569335938
840.5849609375,855.3897705078125,-42.96881866455078,996.0953369140624,218.75033569335938
848.8098754882812,873.4845581054688,-50.78133010864258,1000.0015869140624,222.65660095214844
843.8749389648438,853.7448120117188,-62.5000991821289,1003.9078369140624,218.75033569335938
842.2299194335938,860.32470703125,-62.5000991821289,1007.8140869140624,214.84408569335938
842.2299194335938,860.32470703125,-42.96881866455078,996.0953369140624,222.65660095214844
835.6500244140625,857.0347290039062,-42.96881866455078,996.0953369140624,222.65660095214844
840.5849609375,848.8098754882812,-54.687583923339844,1000.0015869140624,222.65660095214844
842.2299194335938,873.4845581054688,-54.687583923339844,996.0953369140624,222.65660095214844
853.7448120117188,819.2001953125,-50.78133010864258,1000.0015869140624,222.65660095214844
840.5849609375,838.9400024414062,-50.78133010864258,1000.0015869140624,222.65660095214844
843.8749389648438,886.6444091796875,-50.78133010864258,1000.0015869140624,226.56285095214844
843.8749389648438,886.6444091796875,-54.687583923339844,1000.0015869140624,222.65660095214844
837.2949829101562,881.70947265625,-54.687583923339844,1000.0015869140624,222.65660095214844
840.5849609375,840.5849609375,-50.78133010864258,996.0953369140624,222.65660095214844
840.5849609375,840.5849609375,-54.687583923339844,1000.0015869140624,222.65660095214844
840.5849609375,840.5849609375,-54.687583923339844,1011.7203369140624,222.65660095214844
840.5849609375,840.5849609375,-50.78133010864258,992.1890258789062,226.56285095214844
840.5849609375,853.7448120117188,-46.87507247924805,996.0953369140624,230.4691162109375
840.5849609375,853.7448120117188,-46.87507247924805,1003.9078369140624,222.65660095214844
840.5849609375,853.7448120117188,-46.87507247924805,996.0953369140624,222.65660095214844
848.8098754882812,866.9046630859375,-46.87507247924805,996.0953369140624,222.65660095214844
852.0997924804688,860.32470703125,-54.687583923339844,1000.0015869140624,226.56285095214844
848.8098754882812,842.2299194335938,-58.59384155273438,996.0953369140624,226.56285095214844
842.2299194335938,860.32470703125,-42.96881866455078,1000.0015869140624,218.75033569335938
843.8749389648438,825.7801513671875,-39.06256103515625,1000.0015869140624,222.65660095214844
853.7448120117188,832.3600463867188,-39.06256103515625,1000.0015869140624,222.65660095214844
848.8098754882812,880.064453125,-58.59384155273438,996.0953369140624,222.65660095214844
848.8098754882812,832.3600463867188,-58.59384155273438,996.0953369140624,222.65660095214844
848.8098754882812,842.2299194335938,-50.78133010864258,1000.0015869140624,226.56285095214844
848.8098754882812,842.2299194335938,-46.87507247924805,1000.0015869140624,226.56285095214844
838.9400024414062,858.6797485351562,-46.87507247924805,996.0953369140624,226.56285095214844
838.9400024414062,858.6797485351562,-50.78133010864258,1003.9078369140624,226.56285095214844
838.9400024414062,840.5849609375,-46.87507247924805,1000.0015869140624,226.56285095214844
838.9400024414062,840.5849609375,-46.87507247924805,996.0953369140624,226.56285095214844
838.9400024414062,840.5849609375,-50.78133010864258,1000.0015869140624,226.56285095214844
845.5198974609375,829.070068359375,-50.78133010864258,1000.0015869140624,226.56285095214844
852.0997924804688,860.32470703125,-58.59384155273438,1000.0015869140624,222.65660095214844
845.5198974609375,834.0050048828125,-46.87507247924805,996.0953369140624,222.65660095214844
843.8749389648438,852.0997924804688,-46.87507247924805,996.0953369140624,222.65660095214844
847.1648559570312,873.4845581054688,-54.687583923339844,1007.8140869140624,214.84408569335938
843.8749389648438,824.1351318359375,-54.687583923339844,1007.8140869140624,214.84408569335938
847.1648559570312,845.5198974609375,-39.06256103515625,992.1890258789062,226.56285095214844
852.0997924804688,814.2652587890625,-46.87507247924805,1003.9078369140624,226.56285095214844
847.1648559570312,855.3897705078125,-58.59384155273438,1000.0015869140624,222.65660095214844
845.5198974609375,814.2652587890625,-42.96881866455078,996.0953369140624,222.65660095214844
845.5198974609375,814.2652587890625,-42.96881866455078,996.0953369140624,226.56285095214844
845.5198974609375,860.32470703125,-46.87507247924805,1003.9078369140624,218.75033569335938
845.5198974609375,860.32470703125,-50.78133010864258,1003.9078369140624,218.75033569335938
845.5198974609375,860.32470703125,-50.78133010864258,1000.0015869140624,222.65660095214844
847.1648559570312,868.5496215820312,-54.687583923339844,1000.0015869140624,226.56285095214844
848.8098754882812,837.2949829101562,-50.78133010864258,1000.0015869140624,226.56285095214844
848.8098754882812,837.2949829101562,-46.87507247924805,1000.0015869140624,222.65660095214844
843.8749389648438,884.9994506835938,-50.78133010864258,992.1890258789062,222.65660095214844
843.8749389648438,884.9994506835938,-46.87507247924805,992.1890258789062,226.56285095214844
847.1648559570312,832.3600463867188,-46.87507247924805,1000.0015869140624,226.56285095214844
847.1648559570312,814.2652587890625,-54.687583923339844,1000.0015869140624,222.65660095214844
847.1648559570312,901.44921875,-42.96881866455078,1000.0015869140624,222.65660095214844
847.1648559570312,901.44921875,-46.87507247924805,1007.8140869140624,226.56285095214844
848.8098754882812,834.0050048828125,-50.78133010864258,1000.0015869140624,222.65660095214844
850.454833984375,853.7448120117188,-46.87507247924805,996.0953369140624,222.65660095214844
850.454833984375,853.7448120117188,-50.78133010864258,1000.0015869140624,222.65660095214844
853.7448120117188,848.8098754882812,-50.78133010864258,1000.0015869140624,222.65660095214844
848.8098754882812,838.9400024414062,-50.78133010864258,1000.0015869140624,222.65660095214844
850.454833984375,822.4901733398438,-46.87507247924805,1000.0015869140624,222.65660095214844
853.7448120117188,868.5496215820312,-50.78133010864258,1000.0015869140624,226.56285095214844
847.1648559570312,842.2299194335938,-54.687583923339844,996.0953369140624,230.4691162109375
853.7448120117188,810.9752807617188,-50.78133010864258,1000.0015869140624,230.4691162109375
845.5198974609375,845.5198974609375,-50.78133010864258,1000.0015869140624,226.56285095214844
845.5198974609375,845.5198974609375,-54.687583923339844,1003.9078369140624,218.75033569335938
845.5198974609375,845.5198974609375,-46.87507247924805,984.3765258789062,222.65660095214844
847.1648559570312,850.454833984375,-42.96881866455078,996.0953369140624,226.56285095214844
847.1648559570312,850.454833984375,-46.87507247924805,1000.0015869140624,222.65660095214844
840.5849609375,857.0347290039062,-50.78133010864258,1003.9078369140624,226.56285095214844
843.8749389648438,830.715087890625,-50.78133010864258,996.0953369140624,226.56285095214844
843.8749389648438,871.839599609375,-50.78133010864258,996.0953369140624,226.56285095214844
847.1648559570312,881.70947265625,-50.78133010864258,1000.0015869140624,222.65660095214844
842.2299194335938,848.8098754882812,-50.78133010864258,1000.0015869140624,222.65660095214844
845.5198974609375,822.4901733398438,-50.78133010864258,1000.0015869140624,222.65660095214844
845.5198974609375,822.4901733398438,-46.87507247924805,996.0953369140624,222.65660095214844
850.454833984375,876.7745361328125,-46.87507247924805,1000.0015869140624,226.56285095214844
843.8749389648438,863.6146850585938,-50.78133010864258,1000.0015869140624,222.65660095214844
843.8749389648438,863.6146850585938,-50.78133010864258,996.0953369140624,222.65660095214844
847.1648559570312,834.0050048828125,-50.78133010864258,1000.0015869140624,218.75033569335938
847.1648559570312,857.0347290039062,-54.687583923339844,1007.8140869140624,226.56285095214844
847.1648559570312,829.070068359375,-54.687583923339844,1007.8140869140624,226.56285095214844
848.8098754882812,819.2001953125,-46.87507247924805,996.0953369140624,226.56285095214844
848.8098754882812,819.2001953125,-46.87507247924805,1003.9078369140624,226.56285095214844
843.8749389648438,835.6500244140625,-50.78133010864258,1003.9078369140624,230.4691162109375
843.8749389648438,835.6500244140625,-54.687583923339844,1000.0015869140624,226.56285095214844
843.8749389648438,835.6500244140625,-58.59384155273438,996.0953369140624,222.65660095214844
845.5198974609375,871.839599609375,-58.59384155273438,996.0953369140624,222.65660095214844
847.1648559570312,866.9046630859375,-58.59384155273438,996.0953369140624,222.65660095214844
845.5198974609375,797.8154907226562,-46.87507247924805,1000.0015869140624,222.65660095214844
845.5198974609375,797.8154907226562,-46.87507247924805,1003.9078369140624,222.65660095214844
845.5198974609375,797.8154907226562,-50.78133010864258,1003.9078369140624,222.65660095214844
853.7448120117188,860.32470703125,-50.78133010864258,1003.9078369140624,222.65660095214844
848.8098754882812,845.5198974609375,-50.78133010864258,1000.0015869140624,230.4691162109375
853.7448120117188,860.32470703125,-54.687583923339844,1003.9078369140624,222.65660095214844
853.7448120117188,860.32470703125,-42.96881866455078,988.2827758789062,226.56285095214844
853.7448120117188,824.1351318359375,-42.96881866455078,1000.0015869140624,226.56285095214844
847.1648559570312,865.2596435546875,-46.87507247924805,996.0953369140624,226.56285095214844
847.1648559570312,865.2596435546875,-50.78133010864258,1000.0015869140624,226.56285095214844
845.5198974609375,824.1351318359375,-50.78133010864258,1000.0015869140624,226.56285095214844
845.5198974609375,824.1351318359375,-50.78133010864258,1000.0015869140624,222.65660095214844
847.1648559570312,860.32470703125,-50.78133010864258,1000.0015869140624,222.65660095214844
848.8098754882812,825.7801513671875,-46.87507247924805,1000.0015869140624,222.65660095214844
853.7448120117188,871.839599609375,-46.87507247924805,1000.0015869140624,222.65660095214844
850.454833984375,880.064453125,-50.78133010864258,1000.0015869140624,222.65660095214844
850.454833984375,880.064453125,-50.78133010864258,1000.0015869140624,226.56285095214844
845.5198974609375,868.5496215820312,-50.78133010864258,996.0953369140624,226.56285095214844
838.9400024414062,848.8098754882812,-54.687583923339844,1007.8140869140624,222.65660095214844
842.2299194335938,829.070068359375,-54.687583923339844,1007.8140869140624,222.65660095214844
845.5198974609375,819.2001953125,-46.87507247924805,1000.0015869140624,226.56285095214844
845.5198974609375,802.7504272460938,-46.87507247924805,996.0953369140624,226.56285095214844
853.7448120117188,819.2001953125,-58.59384155273438,1000.0015869140624,222.65660095214844
850.454833984375,820.84521484375,-58.59384155273438,1000.0015869140624,222.65660095214844
842.2299194335938,848.8098754882812,-46.87507247924805,1000.0015869140624,226.56285095214844
838.9400024414062,819.2001953125,-50.78133010864258,1000.0015869140624,226.56285095214844
845.5198974609375,840.5849609375,-50.78133010864258,996.0953369140624,222.65660095214844
852.0997924804688,843.8749389648438,-50.78133010864258,996.0953369140624,222.65660095214844
852.0997924804688,860.32470703125,-46.87507247924805,996.0953369140624,222.65660095214844
852.0997924804688,860.32470703125,-46.87507247924805,996.0953369140624,226.56285095214844
855.3897705078125,850.454833984375,-50.78133010864258,1000.0015869140624,226.56285095214844
845.5198974609375,820.84521484375,-50.78133010864258,1000.0015869140624,226.56285095214844
847.1648559570312,806.0403442382812,-46.87507247924805,996.0953369140624,222.65660095214844
848.8098754882812,857.0347290039062,-46.87507247924805,996.0953369140624,222.65660095214844
843.8749389648438,860.32470703125,-46.87507247924805,1000.0015869140624,226.56285095214844
848.8098754882812,815.9102783203125,-54.687583923339844,1000.0015869140624,226.56285095214844
847.1648559570312,820.84521484375,-46.87507247924805,1000.0015869140624,222.65660095214844
848.8098754882812,858.6797485351562,-50.78133010864258,996.0953369140624,222.65660095214844
848.8098754882812,858.6797485351562,-50.78133010864258,1000.0015869140624,226.56285095214844
852.0997924804688,863.6146850585938,-46.87507247924805,1000.0015869140624,226.56285095214844
842.2299194335938,876.7745361328125,-46.87507247924805,996.0953369140624,226.56285095214844
842.2299194335938,876.7745361328125,-50.78133010864258,1003.9078369140624,226.56285095214844
837.2949829101562,825.7801513671875,-50.78133010864258,1000.0015869140624,226.56285095214844
840.5849609375,824.1351318359375,-50.78133010864258,1000.0015869140624,226.56285095214844
838.9400024414062,863.6146850585938,-50.78133010864258,996.0953369140624,222.65660095214844
840.5849609375,868.5496215820312,-46.87507247924805,996.0953369140624,222.65660095214844
840.5849609375,868.5496215820312,-42.96881866455078,996.0953369140624,226.56285095214844
843.8749389648438,896.5142822265625,-46.87507247924805,1000.0015869140624,226.56285095214844
848.8098754882812,850.454833984375,-46.87507247924805,1003.9078369140624,222.65660095214844
848.8098754882812,850.454833984375,-50.78133010864258,1000.0015869140624,222.65660095214844
852.0997924804688,861.9697265625,-50.78133010864258,996.0953369140624,222.65660095214844
848.8098754882812,845.5198974609375,-46.87507247924805,1000.0015869140624,230.4691162109375
848.8098754882812,863.6146850585938,-46.87507247924805,1000.0015869140624,230.4691162109375
842.2299194335938,852.0997924804688,-46.87507247924805,1000.0015869140624,230.4691162109375
842.2299194335938,852.0997924804688,-50.78133010864258,996.0953369140624,226.56285095214844
845.5198974609375,871.839599609375,-54.687583923339844,1000.0015869140624,226.56285095214844
843.8749389648438,880.064453125,-50.78133010864258,992.1890258789062,230.4691162109375
843.8749389648438,880.064453125,-42.96881866455078,996.0953369140624,230.4691162109375
843.8749389648438,880.064453125,-50.78133010864258,1003.9078369140624,222.65660095214844
843.8749389648438,881.70947265625,-50.78133010864258,1003.9078369140624,222.65660095214844
843.8749389648438,825.7801513671875,-46.87507247924805,996.0953369140624,226.56285095214844
843.8749389648438,825.7801513671875,-46.87507247924805,1000.0015869140624,226.56285095214844
843.8749389648438,825.7801513671875,-50.78133010864258,996.0953369140624,226.56285095214844
845.5198974609375,829.070068359375,-50.78133010864258,1000.0015869140624,222.65660095214844
843.8749389648438,875.1295166015625,-50.78133010864258,1003.9078369140624,222.65660095214844
848.8098754882812,873.4845581054688,-46.87507247924805,1000.0015869140624,222.65660095214844
847.1648559570312,845.5198974609375,-50.78133010864258,996.0953369140624,226.56285095214844
845.5198974609375,888.2893676757812,-50.78133010864258,1000.0015869140624,226.56285095214844
845.5198974609375,898.1592407226562,-50.78133010864258,1000.0015869140624,226.56285095214844
843.8749389648438,903.09423828125,-46.87507247924805,1000.0015869140624,230.4691162109375
843.8749389648438,903.09423828125,-46.87507247924805,996.0953369140624,230.4691162109375
845.5198974609375,865.2596435546875,-46.87507247924805,996.0953369140624,230.4691162109375
842.2299194335938,865.2596435546875,-50.78133010864258,992.1890258789062,222.65660095214844
845.5198974609375,868.5496215820312,-46.87507247924805,1000.0015869140624,226.56285095214844
840.5849609375,901.44921875,-54.687583923339844,1000.0015869140624,226.56285095214844
840.5849609375,901.44921875,-54.687583923339844,996.0953369140624,222.65660095214844
850.454833984375,861.9697265625,-50.78133010864258,1000.0015869140624,222.65660095214844
847.1648559570312,884.9994506835938,-46.87507247924805,1000.0015869140624,226.56285095214844
845.5198974609375,903.09423828125,-50.78133010864258,996.0953369140624,226.56285095214844
850.454833984375,912.964111328125,-50.78133010864258,996.0953369140624,226.56285095214844
850.454833984375,898.1592407226562,-54.687583923339844,1000.0015869140624,226.56285095214844
850.454833984375,898.1592407226562,-50.78133010864258,1000.0015869140624,226.56285095214844
850.454833984375,898.1592407226562,-46.87507247924805,1000.0015869140624,226.56285095214844
847.1648559570312,860.32470703125,-46.87507247924805,1000.0015869140624,226.56285095214844
842.2299194335938,878.4194946289062,-46.87507247924805,1000.0015869140624,226.56285095214844
842.2299194335938,878.4194946289062,-42.96881866455078,996.0953369140624,226.56285095214844
842.2299194335938,878.4194946289062,-50.78133010864258,1000.0015869140624,226.56285095214844
842.2299194335938,878.4194946289062,-54.687583923339844,1003.9078369140624,222.65660095214844
845.5198974609375,880.064453125,-54.687583923339844,1003.9078369140624,222.65660095214844
850.454833984375,847.1648559570312,-46.87507247924805,1000.0015869140624,226.56285095214844
850.454833984375,847.1648559570312,-50.78133010864258,1000.0015869140624,226.56285095214844
847.1648559570312,843.8749389648438,-54.687583923339844,1000.0015869140624,222.65660095214844
847.1648559570312,814.2652587890625,-54.687583923339844,996.0953369140624,226.56285095214844
847.1648559570312,814.2652587890625,-46.87507247924805,1000.0015869140624,230.4691162109375
847.1648559570312,814.2652587890625,-42.96881866455078,1003.9078369140624,230.4691162109375
847.1648559570312,814.2652587890625,-46.87507247924805,996.0953369140624,226.56285095214844
848.8098754882812,801.1054077148438,-46.87507247924805,996.0953369140624,226.56285095214844
840.5849609375,863.6146850585938,-50.78133010864258,1000.0015869140624,226.56285095214844
840.5849609375,834.0050048828125,-50.78133010864258,1000.0015869140624,226.56285095214844
843.8749389648438,771.4957885742188,-46.87507247924805,1000.0015869140624,226.56285095214844
842.2299194335938,825.7801513671875,-54.687583923339844,1003.9078369140624,222.65660095214844
842.2299194335938,825.7801513671875,-50.78133010864258,1000.0015869140624,218.75033569335938
842.2299194335938,825.7801513671875,-42.96881866455078,984.3765258789062,226.56285095214844
847.1648559570312,857.0347290039062,-42.96881866455078,984.3765258789062,226.56285095214844
845.5198974609375,945.8637084960938,-54.687583923339844,1003.9078369140624,226.56285095214844
845.5198974609375,945.8637084960938,-54.687583923339844,996.0953369140624,226.56285095214844
845.5198974609375,899.8042602539062,-50.78133010864258,996.0953369140624,226.56285095214844
843.8749389648438,855.3897705078125,-46.87507247924805,992.1890258789062,226.56285095214844
845.5198974609375,935.9938354492188,-46.87507247924805,1000.0015869140624,226.56285095214844
850.454833984375,893.2243041992188,-50.78133010864258,1000.0015869140624,226.56285095214844
838.9400024414062,894.8693237304688,-50.78133010864258,1000.0015869140624,226.56285095214844
842.2299194335938,945.8637084960938,-54.687583923339844,1000.0015869140624,222.65660095214844
843.8749389648438,889.9343872070312,-54.687583923339844,1000.0015869140624,222.65660095214844
850.454833984375,894.8693237304688,-46.87507247924805,996.0953369140624,222.65660095214844
845.5198974609375,940.9287719726562,-54.687583923339844,1007.8140869140624,222.65660095214844
845.5198974609375,886.6444091796875,-50.78133010864258,996.0953369140624,226.56285095214844
845.5198974609375,886.6444091796875,-50.78133010864258,1000.0015869140624,226.56285095214844
848.8098754882812,952.443603515625,-50.78133010864258,1000.0015869140624,226.56285095214844
843.8749389648438,911.319091796875,-46.87507247924805,1000.0015869140624,230.4691162109375
843.8749389648438,911.319091796875,-54.687583923339844,996.0953369140624,222.65660095214844
840.5849609375,927.7689208984376,-54.687583923339844,996.0953369140624,222.65660095214844
840.5849609375,847.1648559570312,-50.78133010864258,1000.0015869140624,222.65660095214844
848.8098754882812,934.3488159179688,-42.96881866455078,996.0953369140624,226.56285095214844
845.5198974609375,934.3488159179688,-46.87507247924805,1000.0015869140624,226.56285095214844
847.1648559570312,881.70947265625,-50.78133010864258,996.0953369140624,230.4691162109375
847.1648559570312,881.70947265625,-54.687583923339844,996.0953369140624,226.56285095214844
842.2299194335938,924.4789428710938,-54.687583923339844,1000.0015869140624,226.56285095214844
843.8749389648438,944.2186889648438,-50.78133010864258,996.0953369140624,230.4691162109375
843.8749389648438,937.6387939453124,-50.78133010864258,992.1890258789062,226.56285095214844
852.0997924804688,942.57373046875,-46.87507247924805,1000.0015869140624,222.65660095214844
850.454833984375,932.703857421875,-42.96881866455078,996.0953369140624,226.56285095214844
850.454833984375,932.703857421875,-46.87507247924805,1000.0015869140624,230.4691162109375
850.454833984375,932.703857421875,-50.78133010864258,1003.9078369140624,230.4691162109375
843.8749389648438,904.7391967773438,-46.87507247924805,996.0953369140624,230.4691162109375
840.5849609375,894.8693237304688,-50.78133010864258,1003.9078369140624,226.56285095214844
838.9400024414062,940.9287719726562,-42.96881866455078,988.2827758789062,226.56285095214844
843.8749389648438,942.57373046875,-42.96881866455078,988.2827758789062,226.56285095214844
843.8749389648438,909.6741333007812,-50.78133010864258,1000.0015869140624,226.56285095214844
847.1648559570312,944.2186889648438,-58.59384155273438,1000.0015869140624,222.65660095214844
840.5849609375,955.7335815429688,-42.96881866455078,992.1890258789062,226.56285095214844
840.5849609375,955.7335815429688,-39.06256103515625,992.1890258789062,230.4691162109375
840.5849609375,955.7335815429688,-42.96881866455078,1000.0015869140624,230.4691162109375
843.8749389648438,911.319091796875,-42.96881866455078,1000.0015869140624,230.4691162109375
842.2299194335938,954.088623046875,-54.687583923339844,996.0953369140624,230.4691162109375
843.8749389648438,901.44921875,-42.96881866455078,996.0953369140624,226.56285095214844
842.2299194335938,904.7391967773438,-54.687583923339844,1003.9078369140624,226.56285095214844
857.0347290039062,939.2837524414062,-46.87507247924805,988.2827758789062,230.4691162109375
857.0347290039062,939.2837524414062,-46.87507247924805,996.0953369140624,226.56285095214844
848.8098754882812,952.443603515625,-50.78133010864258,1003.9078369140624,230.4691162109375
845.5198974609375,906.3841552734376,-46.87507247924805,996.0953369140624,226.56285095214844
853.7448120117188,908.0291748046876,-39.06256103515625,1000.0015869140624,222.65660095214844
853.7448120117188,908.0291748046876,-46.87507247924805,1000.0015869140624,226.56285095214844
845.5198974609375,881.70947265625,-46.87507247924805,1000.0015869140624,226.56285095214844
852.0997924804688,921.18896484375,-46.87507247924805,1000.0015869140624,226.56285095214844
845.5198974609375,944.2186889648438,-46.87507247924805,1000.0015869140624,234.3753662109375
847.1648559570312,932.703857421875,-50.78133010864258,996.0953369140624,226.56285095214844
845.5198974609375,853.7448120117188,-46.87507247924805,1007.8140869140624,218.75033569335938
845.5198974609375,853.7448120117188,-35.15630340576172,996.0953369140624,226.56285095214844
838.9400024414062,954.088623046875,-42.96881866455078,1000.0015869140624,230.4691162109375
838.9400024414062,954.088623046875,-46.87507247924805,996.0953369140624,226.56285095214844
838.9400024414062,954.088623046875,-54.687583923339844,1000.0015869140624,226.56285095214844
835.6500244140625,942.57373046875,-54.687583923339844,1000.0015869140624,226.56285095214844
825.7801513671875,916.2540283203124,-46.87507247924805,1003.9078369140624,238.2816162109375
837.2949829101562,926.1239624023438,-42.96881866455078,992.1890258789062,222.65660095214844
837.2949829101562,926.1239624023438,-39.06256103515625,996.0953369140624,226.56285095214844
837.2949829101562,926.1239624023438,-39.06256103515625,1000.0015869140624,230.4691162109375
837.2949829101562,926.1239624023438,-42.96881866455078,996.0953369140624,230.4691162109375
834.0050048828125,906.3841552734376,-42.96881866455078,996.0953369140624,230.4691162109375
835.6500244140625,904.7391967773438,-46.87507247924805,1000.0015869140624,226.56285095214844
835.6500244140625,904.7391967773438,-46.87507247924805,1000.0015869140624,230.4691162109375
830.715087890625,820.84521484375,-46.87507247924805,1000.0015869140624,230.4691162109375
829.070068359375,817.5552368164062,-39.06256103515625,996.0953369140624,234.3753662109375
829.070068359375,817.5552368164062,-42.96881866455078,1000.0015869140624,234.3753662109375
837.2949829101562,912.964111328125,-54.687583923339844,1007.8140869140624,226.56285095214844
840.5849609375,921.18896484375,-46.87507247924805,988.2827758789062,230.4691162109375
840.5849609375,921.18896484375,-46.87507247924805,1000.0015869140624,226.56285095214844
838.9400024414062,894.8693237304688,-42.96881866455078,1000.0015869140624,230.4691162109375
838.9400024414062,868.5496215820312,-42.96881866455078,1000.0015869140624,230.4691162109375
838.9400024414062,842.2299194335938,-50.78133010864258,996.0953369140624,226.56285095214844
837.2949829101562,922.833984375,-50.78133010864258,996.0953369140624,222.65660095214844
843.8749389648438,860.32470703125,-46.87507247924805,996.0953369140624,222.65660095214844
847.1648559570312,939.2837524414062,-42.96881866455078,992.1890258789062,226.56285095214844
852.0997924804688,912.964111328125,-50.78133010864258,1003.9078369140624,230.4691162109375
852.0997924804688,912.964111328125,-50.78133010864258,1000.0015869140624,230.4691162109375
848.8098754882812,945.8637084960938,-46.87507247924805,996.0953369140624,226.56285095214844
843.8749389648438,903.09423828125,-50.78133010864258,1000.0015869140624,226.56285095214844
847.1648559570312,838.9400024414062,-39.06256103515625,992.1890258789062,226.56285095214844
840.5849609375,807.6853637695312,-39.06256103515625,992.1890258789062,226.56285095214844
842.2299194335938,820.84521484375,-42.96881866455078,1000.0015869140624,234.3753662109375
838.9400024414062,937.6387939453124,-46.87507247924805,1000.0015869140624,230.4691162109375
843.8749389648438,852.0997924804688,-46.87507247924805,1000.0015869140624,230.4691162109375
843.8749389648438,822.4901733398438,-42.96881866455078,1000.0015869140624,230.4691162109375
843.8749389648438,868.5496215820312,-50.78133010864258,1000.0015869140624,230.4691162109375
843.8749389648438,868.5496215820312,-50.78133010864258,1000.0015869140624,226.56285095214844
843.8749389648438,868.5496215820312,-50.78133010864258,996.0953369140624,226.56285095214844
838.9400024414062,888.2893676757812,-50.78133010864258,996.0953369140624,226.56285095214844
842.2299194335938,829.070068359375,-42.96881866455078,1000.0015869140624,230.4691162109375
842.2299194335938,829.070068359375,-54.687583923339844,1007.8140869140624,226.56285095214844
848.8098754882812,829.070068359375,-54.687583923339844,1007.8140869140624,226.56285095214844
850.454833984375,822.4901733398438,-46.87507247924805,1003.9078369140624,226.56285095214844
840.5849609375,911.319091796875,-50.78133010864258,1000.0015869140624,230.4691162109375
840.5849609375,911.319091796875,-54.687583923339844,1000.0015869140624,230.4691162109375
840.5849609375,753.4010009765625,-54.687583923339844,1000.0015869140624,230.4691162109375
838.9400024414062,832.3600463867188,-42.96881866455078,996.0953369140624,226.56285095214844
840.5849609375,926.1239624023438,-50.78133010864258,996.0953369140624,230.4691162109375
850.454833984375,886.6444091796875,-46.87507247924805,996.0953369140624,230.4691162109375
847.1648559570312,806.0403442382812,-39.06256103515625,988.2827758789062,230.4691162109375
847.1648559570312,806.0403442382812,-42.96881866455078,1003.9078369140624,222.65660095214844
840.5849609375,845.5198974609375,-46.87507247924805,996.0953369140624,230.4691162109375
853.7448120117188,852.0997924804688,-54.687583923339844,996.0953369140624,226.56285095214844
853.7448120117188,852.0997924804688,-50.78133010864258,1000.0015869140624,226.56285095214844
850.454833984375,838.9400024414062,-50.78133010864258,1000.0015869140624,226.56285095214844
850.454833984375,883.3544311523438,-46.87507247924805,1000.0015869140624,230.4691162109375
847.1648559570312,852.0997924804688,-46.87507247924805,1000.0015869140624,234.3753662109375
840.5849609375,852.0997924804688,-46.87507247924805,996.0953369140624,226.56285095214844
840.5849609375,903.09423828125,-46.87507247924805,996.0953369140624,226.56285095214844
845.5198974609375,873.4845581054688,-50.78133010864258,1003.9078369140624,230.4691162109375
845.5198974609375,873.4845581054688,-46.87507247924805,1000.0015869140624,226.56285095214844
837.2949829101562,899.8042602539062,-46.87507247924805,1000.0015869140624,226.56285095214844
840.5849609375,827.4251098632812,-46.87507247924805,1003.9078369140624,226.56285095214844
840.5849609375,827.4251098632812,-50.78133010864258,1000.0015869140624,230.4691162109375
837.2949829101562,893.2243041992188,-50.78133010864258,1000.0015869140624,230.4691162109375
843.8749389648438,880.064453125,-46.87507247924805,1000.0015869140624,230.4691162109375
843.8749389648438,880.064453125,-50.78133010864258,1003.9078369140624,230.4691162109375
840.5849609375,824.1351318359375,-50.78133010864258,1000.0015869140624,230.4691162109375
840.5849609375,824.1351318359375,-50.78133010864258,996.0953369140624,226.56285095214844
842.2299194335938,873.4845581054688,-46.87507247924805,988.2827758789062,226.56285095214844
848.8098754882812,860.32470703125,-42.96881866455078,1003.9078369140624,234.3753662109375
848.8098754882812,860.32470703125,-50.78133010864258,1003.9078369140624,230.4691162109375
848.8098754882812,912.964111328125,-50.78133010864258,1003.9078369140624,230.4691162109375
840.5849609375,873.4845581054688,-54.687583923339844,992.1890258789062,226.56285095214844
840.5849609375,873.4845581054688,-46.87507247924805,996.0953369140624,226.56285095214844
840.5849609375,873.4845581054688,-42.96881866455078,1000.0015869140624,234.3753662109375
845.5198974609375,820.84521484375,-42.96881866455078,1003.9078369140624,230.4691162109375
843.8749389648438,926.1239624023438,-46.87507247924805,996.0953369140624,226.56285095214844
838.9400024414062,820.84521484375,-42.96881866455078,988.2827758789062,230.4691162109375
840.5849609375,873.4845581054688,-42.96881866455078,1000.0015869140624,230.4691162109375
842.2299194335938,820.84521484375,-42.96881866455078,1000.0015869140624,230.4691162109375
845.5198974609375,916.2540283203124,-46.87507247924805,1000.0015869140624,230.4691162109375
845.5198974609375,832.3600463867188,-50.78133010864258,996.0953369140624,230.4691162109375
838.9400024414062,911.319091796875,-42.96881866455078,996.0953369140624,230.4691162109375
838.9400024414062,921.18896484375,-46.87507247924805,1000.0015869140624,230.4691162109375
845.5198974609375,832.3600463867188,-46.87507247924805,1000.0015869140624,230.4691162109375
848.8098754882812,835.6500244140625,-46.87507247924805,992.1890258789062,230.4691162109375
848.8098754882812,881.70947265625,-46.87507247924805,992.1890258789062,230.4691162109375
843.8749389648438,876.7745361328125,-46.87507247924805,996.0953369140624,230.4691162109375
843.8749389648438,876.7745361328125,-46.87507247924805,1003.9078369140624,234.3753662109375
840.5849609375,917.8990478515624,-46.87507247924805,1000.0015869140624,234.3753662109375
842.2299194335938,875.1295166015625,-50.78133010864258,1007.8140869140624,226.56285095214844
840.5849609375,863.6146850585938,-50.78133010864258,1007.8140869140624,226.56285095214844
837.2949829101562,855.3897705078125,-42.96881866455078,1000.0015869140624,230.4691162109375
837.2949829101562,855.3897705078125,-46.87507247924805,1000.0015869140624,234.3753662109375
838.9400024414062,838.9400024414062,-46.87507247924805,1000.0015869140624,234.3753662109375
840.5849609375,807.6853637695312,-46.87507247924805,1000.0015869140624,234.3753662109375
840.5849609375,807.6853637695312,-50.78133010864258,1000.0015869140624,230.4691162109375
838.9400024414062,857.0347290039062,-54.687583923339844,996.0953369140624,230.4691162109375
847.1648559570312,820.84521484375,-54.687583923339844,996.0953369140624,230.4691162109375
847.1648559570312,899.8042602539062,-42.96881866455078,1000.0015869140624,230.4691162109375
847.1648559570312,899.8042602539062,-42.96881866455078,992.1890258789062,230.4691162109375
840.5849609375,847.1648559570312,-42.96881866455078,992.1890258789062,230.4691162109375
840.5849609375,847.1648559570312,-46.87507247924805,1000.0015869140624,226.56285095214844
840.5849609375,847.1648559570312,-50.78133010864258,1000.0015869140624,230.4691162109375
834.0050048828125,860.32470703125,-46.87507247924805,1000.0015869140624,230.4691162109375
837.2949829101562,804.3953857421875,-46.87507247924805,996.0953369140624,230.4691162109375
845.5198974609375,880.064453125,-42.96881866455078,996.0953369140624,234.3753662109375
843.8749389648438,853.7448120117188,-46.87507247924805,1000.0015869140624,230.4691162109375
843.8749389648438,827.4251098632812,-50.78133010864258,996.0953369140624,226.56285095214844
843.8749389648438,827.4251098632812,-42.96881866455078,988.2827758789062,230.4691162109375
847.1648559570312,865.2596435546875,-46.87507247924805,1000.0015869140624,234.3753662109375
842.2299194335938,786.3005981445312,-46.87507247924805,1000.0015869140624,234.3753662109375
843.8749389648438,891.579345703125,-46.87507247924805,1000.0015869140624,230.4691162109375
842.2299194335938,792.8805541992188,-42.96881866455078,1000.0015869140624,226.56285095214844
845.5198974609375,820.84521484375,-42.96881866455078,1000.0015869140624,226.56285095214844
840.5849609375,903.09423828125,-46.87507247924805,996.0953369140624,230.4691162109375
840.5849609375,903.09423828125,-50.78133010864258,996.0953369140624,230.4691162109375
840.5849609375,822.4901733398438,-46.87507247924805,996.0953369140624,230.4691162109375
835.6500244140625,848.8098754882812,-50.78133010864258,1000.0015869140624,230.4691162109375
835.6500244140625,848.8098754882812,-50.78133010864258,1003.9078369140624,226.56285095214844
847.1648559570312,893.2243041992188,-50.78133010864258,1003.9078369140624,226.56285095214844
850.454833984375,750.1110229492188,-42.96881866455078,996.0953369140624,230.4691162109375
845.5198974609375,855.3897705078125,-42.96881866455078,996.0953369140624,230.4691162109375
840.5849609375,806.0403442382812,-54.687583923339844,996.0953369140624,230.4691162109375
843.8749389648438,863.6146850585938,-42.96881866455078,996.0953369140624,230.4691162109375
843.8749389648438,886.6444091796875,-39.06256103515625,996.0953369140624,230.4691162109375
845.5198974609375,945.8637084960938,-50.78133010864258,996.0953369140624,230.4691162109375
847.1648559570312,912.964111328125,-50.78133010864258,996.0953369140624,230.4691162109375
848.8098754882812,886.6444091796875,-50.78133010864258,996.0953369140624,230.4691162109375
855.3897705078125,820.84521484375,-42.96881866455078,996.0953369140624,234.3753662109375
853.7448120117188,835.6500244140625,-42.96881866455078,996.0953369140624,234.3753662109375
843.8749389648438,855.3897705078125,-42.96881866455078,996.0953369140624,234.3753662109375
838.9400024414062,812.6203002929688,-46.87507247924805,1000.0015869140624,234.3753662109375
865.2596435546875,796.1704711914062,-50.78133010864258,1007.8140869140624,230.4691162109375
865.2596435546875,796.1704711914062,-46.87507247924805,984.3765258789062,234.3753662109375
865.2596435546875,796.1704711914062,-39.06256103515625,992.1890258789062,234.3753662109375
861.9697265625,819.2001953125,-39.06256103515625,992.1890258789062,234.3753662109375
835.6500244140625,840.5849609375,-50.78133010864258,1000.0015869140624,230.4691162109375
840.5849609375,883.3544311523438,-46.87507247924805,1000.0015869140624,230.4691162109375
837.2949829101562,845.5198974609375,-46.87507247924805,1000.0015869140624,230.4691162109375
845.5198974609375,755.0459594726562,-42.96881866455078,992.1890258789062,226.56285095214844
845.5198974609375,755.0459594726562,-42.96881866455078,996.0953369140624,230.4691162109375
845.5198974609375,755.0459594726562,-42.96881866455078,1000.0015869140624,230.4691162109375
852.0997924804688,817.5552368164062,-46.87507247924805,1003.9078369140624,230.4691162109375
852.0997924804688,817.5552368164062,-50.78133010864258,1000.0015869140624,226.56285095214844
852.0997924804688,783.0106201171875,-50.78133010864258,992.1890258789062,226.56285095214844
852.0997924804688,876.7745361328125,-50.78133010864258,992.1890258789062,226.56285095214844
840.5849609375,822.4901733398438,-42.96881866455078,1000.0015869140624,238.2816162109375
840.5849609375,822.4901733398438,-54.687583923339844,1003.9078369140624,230.4691162109375
832.3600463867188,873.4845581054688,-42.96881866455078,1000.0015869140624,222.65660095214844
837.2949829101562,847.1648559570312,-39.06256103515625,996.0953369140624,222.65660095214844
838.9400024414062,847.1648559570312,-39.06256103515625,992.1890258789062,226.56285095214844
838.9400024414062,847.1648559570312,-46.87507247924805,996.0953369140624,226.56285095214844
838.9400024414062,847.1648559570312,-50.78133010864258,1000.0015869140624,226.56285095214844
842.2299194335938,812.6203002929688,-50.78133010864258,1000.0015869140624,226.56285095214844
842.2299194335938,783.0106201171875,-54.687583923339844,1003.9078369140624,222.65660095214844
842.2299194335938,783.0106201171875,-54.687583923339844,1000.0015869140624,218.75033569335938
838.9400024414062,888.2893676757812,-42.96881866455078,988.2827758789062,226.56285095214844
838.9400024414062,914.6090698242188,-35.15630340576172,1003.9078369140624,242.18788146972656
838.9400024414062,914.6090698242188,-50.78133010864258,1007.8140869140624,238.2816162109375
855.3897705078125,819.2001953125,-62.5000991821289,1003.9078369140624,230.4691162109375
855.3897705078125,819.2001953125,-50.78133010864258,992.1890258789062,222.65660095214844
852.0997924804688,898.1592407226562,-50.78133010864258,992.1890258789062,222.65660095214844
852.0997924804688,804.3953857421875,-50.78133010864258,992.1890258789062,222.65660095214844
848.8098754882812,909.6741333007812,-42.96881866455078,1000.0015869140624,230.4691162109375
843.8749389648438,909.6741333007812,-42.96881866455078,1000.0015869140624,230.4691162109375
843.8749389648438,883.3544311523438,-50.78133010864258,984.3765258789062,230.4691162109375
848.8098754882812,899.8042602539062,-35.15630340576172,1000.0015869140624,238.2816162109375
848.8098754882812,899.8042602539062,-42.96881866455078,996.0953369140624,234.3753662109375
847.1648559570312,853.7448120117188,-50.78133010864258,996.0953369140624,230.4691162109375
847.1648559570312,853.7448120117188,-58.59384155273438,996.0953369140624,226.56285095214844
847.1648559570312,853.7448120117188,-46.87507247924805,1003.9078369140624,230.4691162109375
848.8098754882812,922.833984375,-46.87507247924805,1003.9078369140624,230.4691162109375
850.454833984375,906.3841552734376,-39.06256103515625,996.0953369140624,226.56285095214844
848.8098754882812,801.1054077148438,-39.06256103515625,996.0953369140624,226.56285095214844
845.5198974609375,919.5440063476562,-46.87507247924805,996.0953369140624,230.4691162109375
845.5198974609375,919.5440063476562,-46.87507247924805,996.0953369140624,234.3753662109375
845.5198974609375,893.2243041992188,-50.78133010864258,1007.8140869140624,230.4691162109375
852.0997924804688,787.945556640625,-50.78133010864258,1007.8140869140624,230.4691162109375
855.3897705078125,855.3897705078125,-50.78133010864258,1000.0015869140624,234.3753662109375
852.0997924804688,810.9752807617188,-35.15630340576172,984.3765258789062,226.56285095214844
850.454833984375,942.57373046875,-27.343791961669922,1000.0015869140624,230.4691162109375
843.8749389648438,886.6444091796875,-35.15630340576172,1000.0015869140624,230.4691162109375
843.8749389648438,886.6444091796875,-39.06256103515625,996.0953369140624,226.56285095214844
843.8749389648438,939.2837524414062,-23.437536239624023,1000.0015869140624,226.56285095214844
843.8749389648438,939.2837524414062,-27.343791961669922,1000.0015869140624,226.56285095214844
843.8749389648438,939.2837524414062,-35.15630340576172,1000.0015869140624,222.65660095214844
847.1648559570312,886.6444091796875,-35.15630340576172,1000.0015869140624,222.65660095214844
845.5198974609375,860.32470703125,-35.15630340576172,996.0953369140624,226.56285095214844
837.2949829101562,926.1239624023438,-31.25004959106445,1000.0015869140624,226.56285095214844
838.9400024414062,912.964111328125,-27.343791961669922,996.0953369140624,230.4691162109375
838.9400024414062,912.964111328125,-31.25004959106445,996.0953369140624,230.4691162109375
842.2299194335938,860.32470703125,-39.06256103515625,1003.9078369140624,222.65660095214844
842.2299194335938,860.32470703125,-27.343791961669922,1000.0015869140624,226.56285095214844
842.2299194335938,860.32470703125,-23.437536239624023,1003.9078369140624,230.4691162109375
840.5849609375,886.6444091796875,-42.96881866455078,1000.0015869140624,226.56285095214844
843.8749389648438,912.964111328125,-42.96881866455078,1000.0015869140624,226.56285095214844
845.5198974609375,912.964111328125,-35.15630340576172,1003.9078369140624,226.56285095214844
845.5198974609375,931.0588989257812,-31.25004959106445,996.0953369140624,226.56285095214844
850.454833984375,863.6146850585938,-27.343791961669922,1000.0015869140624,226.56285095214844
850.454833984375,863.6146850585938,-35.15630340576172,1003.9078369140624,226.56285095214844
847.1648559570312,863.6146850585938,-35.15630340576172,992.1890258789062,226.56285095214844
847.1648559570312,863.6146850585938,-35.15630340576172,996.0953369140624,222.65660095214844
847.1648559570312,942.57373046875,-35.15630340576172,1000.0015869140624,226.56285095214844
848.8098754882812,837.2949829101562,-39.06256103515625,1000.0015869140624,226.56285095214844
842.2299194335938,784.6556396484375,-39.06256103515625,1007.8140869140624,222.65660095214844
842.2299194335938,942.57373046875,-31.25004959106445,992.1890258789062,230.4691162109375
842.2299194335938,942.57373046875,-35.15630340576172,1003.9078369140624,226.56285095214844
842.2299194335938,942.57373046875,-31.25004959106445,1000.0015869140624,226.56285095214844
842.2299194335938,942.57373046875,-35.15630340576172,1000.0015869140624,226.56285095214844
848.8098754882812,778.07568359375,-35.15630340576172,1000.0015869140624,226.56285095214844
850.454833984375,871.839599609375,-39.06256103515625,996.0953369140624,226.56285095214844
842.2299194335938,802.7504272460938,-39.06256103515625,996.0953369140624,230.4691162109375
842.2299194335938,940.9287719726562,-39.06256103515625,1003.9078369140624,226.56285095214844
842.2299194335938,934.3488159179688,-35.15630340576172,992.1890258789062,230.4691162109375
842.2299194335938,934.3488159179688,-42.96881866455078,1000.0015869140624,226.56285095214844
838.9400024414062,894.8693237304688,-42.96881866455078,1000.0015869140624,226.56285095214844
843.8749389648438,848.8098754882812,-42.96881866455078,996.0953369140624,226.56285095214844
843.8749389648438,848.8098754882812,-42.96881866455078,992.1890258789062,222.65660095214844
843.8749389648438,853.7448120117188,-39.06256103515625,1003.9078369140624,222.65660095214844
837.2949829101562,865.2596435546875,-39.06256103515625,1003.9078369140624,222.65660095214844
853.7448120117188,891.579345703125,-31.25004959106445,1000.0015869140624,222.65660095214844
843.8749389648438,878.4194946289062,-42.96881866455078,1000.0015869140624,226.56285095214844
842.2299194335938,852.0997924804688,-39.06256103515625,996.0953369140624,226.56285095214844
842.2299194335938,852.0997924804688,-35.15630340576172,996.0953369140624,226.56285095214844
845.5198974609375,852.0997924804688,-35.15630340576172,996.0953369140624,226.56285095214844
840.5849609375,926.1239624023438,-35.15630340576172,1003.9078369140624,226.56285095214844
824.1351318359375,713.9214477539062,-39.06256103515625,1003.9078369140624,234.3753662109375
824.1351318359375,713.9214477539062,-11.718768119812012,988.2827758789062,238.2816162109375
835.6500244140625,723.7913208007812,-11.718768119812012,988.2827758789062,238.2816162109375
852.0997924804688,743.5311279296875,-7.812512397766112,992.1890258789062,238.2816162109375
837.2949829101562,710.6315307617188,-15.625024795532227,996.0953369140624,234.3753662109375
834.0050048828125,707.341552734375,-27.343791961669922,1000.0015869140624,226.56285095214844
834.0050048828125,707.341552734375,-39.06256103515625,996.0953369140624,230.4691162109375
834.0050048828125,707.341552734375,-46.87507247924805,1000.0015869140624,222.65660095214844
837.2949829101562,718.8563842773438,-46.87507247924805,1000.0015869140624,222.65660095214844
837.2949829101562,736.951171875,-42.96881866455078,988.2827758789062,218.75033569335938
830.715087890625,722.1463623046875,-15.625024795532227,1007.8140869140624,230.4691162109375
840.5849609375,736.951171875,-7.812512397766112,1007.8140869140624,230.4691162109375
830.715087890625,723.7913208007812,-19.531280517578125,1000.0015869140624,218.75033569335938
835.6500244140625,736.951171875,-19.531280517578125,1000.0015869140624,218.75033569335938
838.9400024414062,725.4363403320312,-19.531280517578125,1000.0015869140624,218.75033569335938
832.3600463867188,738.59619140625,-15.625024795532227,996.0953369140624,222.65660095214844
825.7801513671875,732.0162353515625,-11.718768119812012,992.1890258789062,222.65660095214844
825.7801513671875,732.0162353515625,-19.531280517578125,1011.7203369140624,214.84408569335938
832.3600463867188,748.466064453125,-19.531280517578125,1011.7203369140624,214.84408569335938
824.1351318359375,723.7913208007812,-11.718768119812012,988.2827758789062,214.84408569335938
824.1351318359375,723.7913208007812,-11.718768119812012,1003.9078369140624,214.84408569335938
824.1351318359375,723.7913208007812,-15.625024795532227,1003.9078369140624,218.75033569335938
835.6500244140625,727.081298828125,-15.625024795532227,1003.9078369140624,218.75033569335938
827.4251098632812,727.081298828125,-15.625024795532227,1003.9078369140624,222.65660095214844
827.4251098632812,727.081298828125,-19.531280517578125,1007.8140869140624,218.75033569335938
827.4251098632812,727.081298828125,-23.437536239624023,1000.0015869140624,218.75033569335938
824.1351318359375,732.0162353515625,-19.531280517578125,1000.0015869140624,218.75033569335938
824.1351318359375,732.0162353515625,-19.531280517578125,1003.9078369140624,218.75033569335938
830.715087890625,722.1463623046875,-15.625024795532227,1000.0015869140624,218.75033569335938
830.715087890625,728.726318359375,-7.812512397766112,1000.0015869140624,222.65660095214844
830.715087890625,728.726318359375,-11.718768119812012,1003.9078369140624,218.75033569335938
834.0050048828125,722.1463623046875,-11.718768119812012,1003.9078369140624,218.75033569335938
842.2299194335938,730.3712768554688,-15.625024795532227,1000.0015869140624,218.75033569335938
830.715087890625,728.726318359375,-15.625024795532227,996.0953369140624,218.75033569335938
830.715087890625,728.726318359375,-19.531280517578125,1003.9078369140624,222.65660095214844
830.715087890625,728.726318359375,-19.531280517578125,996.0953369140624,226.56285095214844
835.6500244140625,733.6612548828125,-19.531280517578125,996.0953369140624,226.56285095214844
819.2001953125,712.2764892578125,-27.343791961669922,1007.8140869140624,218.75033569335938
832.3600463867188,727.081298828125,-15.625024795532227,992.1890258789062,226.56285095214844
842.2299194335938,740.2411499023438,-7.812512397766112,988.2827758789062,230.4691162109375
832.3600463867188,718.8563842773438,-7.812512397766112,996.0953369140624,230.4691162109375
838.9400024414062,728.726318359375,-11.718768119812012,1003.9078369140624,230.4691162109375
838.9400024414062,728.726318359375,-7.812512397766112,1011.7203369140624,226.56285095214844
825.7801513671875,697.4716796875,3.9062561988830566,1011.7203369140624,226.56285095214844
830.715087890625,707.341552734375,0.0,996.0953369140624,226.56285095214844
830.715087890625,707.341552734375,0.0,996.0953369140624,218.75033569335938
830.715087890625,707.341552734375,0.0,996.0953369140624,222.65660095214844
840.5849609375,722.1463623046875,0.0,996.0953369140624,222.65660095214844
834.0050048828125,712.2764892578125,15.625024795532227,1000.0015869140624,234.3753662109375
835.6500244140625,708.9865112304688,11.718768119812012,1003.9078369140624,234.3753662109375
845.5198974609375,723.7913208007812,7.812512397766112,1003.9078369140624,230.4691162109375
845.5198974609375,723.7913208007812,7.812512397766112,1000.0015869140624,230.4691162109375
845.5198974609375,723.7913208007812,7.812512397766112,1000.0015869140624,226.56285095214844
835.6500244140625,712.2764892578125,7.812512397766112,996.0953369140624,226.56285095214844
837.2949829101562,707.341552734375,3.9062561988830566,1003.9078369140624,218.75033569335938
845.5198974609375,728.726318359375,0.0,992.1890258789062,222.65660095214844
838.9400024414062,710.6315307617188,3.9062561988830566,1003.9078369140624,226.56285095214844
847.1648559570312,723.7913208007812,3.9062561988830566,1003.9078369140624,226.56285095214844
835.6500244140625,717.21142578125,7.812512397766112,1000.0015869140624,222.65660095214844
835.6500244140625,717.21142578125,0.0,992.1890258789062,222.65660095214844
835.6500244140625,717.21142578125,0.0,996.0953369140624,222.65660095214844
843.8749389648438,715.5664672851562,0.0,996.0953369140624,222.65660095214844
855.3897705078125,741.8861083984375,-7.812512397766112,1003.9078369140624,222.65660095214844
855.3897705078125,741.8861083984375,-11.718768119812012,1000.0015869140624,222.65660095214844
855.3897705078125,741.8861083984375,-15.625024795532227,1003.9078369140624,222.65660095214844
840.5849609375,735.3062133789062,-15.625024795532227,1003.9078369140624,222.65660095214844
843.8749389648438,740.2411499023438,-3.9062561988830566,1000.0015869140624,230.4691162109375
843.8749389648438,740.2411499023438,-3.9062561988830566,1000.0015869140624,222.65660095214844
847.1648559570312,720.5014038085938,-3.9062561988830566,1000.0015869140624,222.65660095214844
853.7448120117188,738.59619140625,-3.9062561988830566,1003.9078369140624,222.65660095214844
850.454833984375,717.21142578125,-7.812512397766112,1003.9078369140624,218.75033569335938
845.5198974609375,728.726318359375,-27.343791961669922,988.2827758789062,210.93783569335938
845.5198974609375,728.726318359375,-46.87507247924805,992.1890258789062,207.0315704345703
848.8098754882812,722.1463623046875,-19.531280517578125,1011.7203369140624,226.56285095214844
848.8098754882812,722.1463623046875,-19.531280517578125,1023.4390869140624,226.56285095214844
858.6797485351562,717.21142578125,-11.718768119812012,1003.9078369140624,234.3753662109375
852.0997924804688,712.2764892578125,-27.343791961669922,1011.7203369140624,226.56285095214844
840.5849609375,715.5664672851562,-27.343791961669922,1007.8140869140624,226.56285095214844
835.6500244140625,713.9214477539062,-35.15630340576172,1000.0015869140624,226.56285095214844
835.6500244140625,713.9214477539062,-42.96881866455078,1000.0015869140624,222.65660095214844
834.0050048828125,715.5664672851562,-50.78133010864258,1003.9078369140624,210.93783569335938
843.8749389648438,748.466064453125,-39.06256103515625,1000.0015869140624,207.0315704345703
830.715087890625,735.3062133789062,-42.96881866455078,1000.0015869140624,203.1253204345703
825.7801513671875,723.7913208007812,-42.96881866455078,1000.0015869140624,207.0315704345703
825.7801513671875,723.7913208007812,-42.96881866455078,1011.7203369140624,207.0315704345703
822.4901733398438,732.0162353515625,-50.78133010864258,1015.6265869140624,191.40655517578125
838.9400024414062,763.2708740234375,-50.78133010864258,992.1890258789062,175.78152465820312
838.9400024414062,763.2708740234375,-31.25004959106445,996.0953369140624,191.40655517578125
838.9400024414062,763.2708740234375,-27.343791961669922,1015.6265869140624,187.5002899169922
834.0050048828125,755.0459594726562,-27.343791961669922,1015.6265869140624,187.5002899169922
830.715087890625,735.3062133789062,-27.343791961669922,1015.6265869140624,187.5002899169922
830.715087890625,735.3062133789062,-39.06256103515625,1011.7203369140624,171.87527465820312
830.715087890625,735.3062133789062,-42.96881866455078,1000.0015869140624,171.87527465820312
832.3600463867188,746.8211059570312,-42.96881866455078,1000.0015869140624,171.87527465820312
840.5849609375,769.850830078125,-50.78133010864258,1007.8140869140624,164.06275939941406
830.715087890625,745.1760864257812,-58.59384155273438,1007.8140869140624,164.06275939941406
845.5198974609375,771.4957885742188,-70.31260681152344,1019.5328369140624,175.78152465820312
835.6500244140625,740.2411499023438,-58.59384155273438,1003.9078369140624,171.87527465820312
845.5198974609375,756.6909790039062,-58.59384155273438,1003.9078369140624,171.87527465820312
845.5198974609375,766.5608520507812,-66.40635681152344,1000.0015869140624,175.78152465820312
842.2299194335938,745.1760864257812,-78.1251220703125,1007.8140869140624,171.87527465820312
842.2299194335938,745.1760864257812,-78.1251220703125,1007.8140869140624,175.78152465820312
842.2299194335938,745.1760864257812,-82.03137969970703,1007.8140869140624,171.87527465820312
850.454833984375,759.9808959960938,-74.21886444091797,1011.7203369140624,175.78152465820312
850.454833984375,759.9808959960938,-74.21886444091797,1015.6265869140624,175.78152465820312
842.2299194335938,748.466064453125,-70.31260681152344,1003.9078369140624,179.68777465820312
843.8749389648438,768.205810546875,-66.40635681152344,1000.0015869140624,183.5940399169922
843.8749389648438,768.205810546875,-70.31260681152344,1011.7203369140624,183.5940399169922
842.2299194335938,753.4010009765625,-70.31260681152344,1019.5328369140624,183.5940399169922
838.9400024414062,748.466064453125,-70.31260681152344,1019.5328369140624,183.5940399169922
835.6500244140625,745.1760864257812,-74.21886444091797,1000.0015869140624,179.68777465820312
820.84521484375,753.4010009765625,-78.1251220703125,1003.9078369140624,183.5940399169922
820.84521484375,753.4010009765625,-66.40635681152344,1003.9078369140624,187.5002899169922
835.6500244140625,755.0459594726562,-58.59384155273438,1023.4390869140624,195.31280517578125
835.6500244140625,755.0459594726562,-70.31260681152344,1000.0015869140624,171.87527465820312
842.2299194335938,748.466064453125,-70.31260681152344,1000.0015869140624,171.87527465820312
840.5849609375,741.8861083984375,-62.5000991821289,1011.7203369140624,171.87527465820312
832.3600463867188,764.9158325195312,-62.5000991821289,1003.9078369140624,175.78152465820312
832.3600463867188,764.9158325195312,-62.5000991821289,1007.8140869140624,191.40655517578125
832.3600463867188,764.9158325195312,-66.40635681152344,1011.7203369140624,195.31280517578125
848.8098754882812,771.4957885742188,-62.5000991821289,988.2827758789062,187.5002899169922
848.8098754882812,771.4957885742188,-54.687583923339844,1000.0015869140624,203.1253204345703
853.7448120117188,773.1407470703125,-54.687583923339844,1000.0015869140624,203.1253204345703
853.7448120117188,773.1407470703125,-58.59384155273438,1019.5328369140624,199.21905517578125
848.8098754882812,778.07568359375,-58.59384155273438,1011.7203369140624,195.31280517578125
848.8098754882812,764.9158325195312,-62.5000991821289,1015.6265869140624,183.5940399169922
850.454833984375,776.4307250976562,-54.687583923339844,1011.7203369140624,195.31280517578125
845.5198974609375,759.9808959960938,-66.40635681152344,1003.9078369140624,187.5002899169922
845.5198974609375,759.9808959960938,-62.5000991821289,1003.9078369140624,187.5002899169922
847.1648559570312,766.5608520507812,-62.5000991821289,1003.9078369140624,187.5002899169922
850.454833984375,796.1704711914062,-54.687583923339844,1007.8140869140624,195.31280517578125
835.6500244140625,758.3359375,-54.687583923339844,1007.8140869140624,195.31280517578125
830.715087890625,759.9808959960938,-54.687583923339844,1011.7203369140624,183.5940399169922
843.8749389648438,764.9158325195312,-58.59384155273438,1011.7203369140624,179.68777465820312
843.8749389648438,781.3656616210938,-58.59384155273438,1011.7203369140624,179.68777465820312
834.0050048828125,774.7857666015625,-58.59384155273438,1007.8140869140624,183.5940399169922
832.3600463867188,779.720703125,-58.59384155273438,1007.8140869140624,183.5940399169922
837.2949829101562,774.7857666015625,-54.687583923339844,1015.6265869140624,191.40655517578125
838.9400024414062,773.1407470703125,-50.78133010864258,1011.7203369140624,187.5002899169922
838.9400024414062,773.1407470703125,-46.87507247924805,1003.9078369140624,183.5940399169922
845.5198974609375,784.6556396484375,-54.687583923339844,1007.8140869140624,179.68777465820312
837.2949829101562,763.2708740234375,-54.687583923339844,1003.9078369140624,175.78152465820312
837.2949829101562,763.2708740234375,-62.5000991821289,1011.7203369140624,175.78152465820312
842.2299194335938,784.6556396484375,-66.40635681152344,1023.4390869140624,171.87527465820312
842.2299194335938,784.6556396484375,-50.78133010864258,1003.9078369140624,175.78152465820312
843.8749389648438,768.205810546875,-50.78133010864258,1007.8140869140624,171.87527465820312
843.8749389648438,768.205810546875,-46.87507247924805,1007.8140869140624,175.78152465820312
843.8749389648438,768.205810546875,-42.96881866455078,1007.8140869140624,167.96900939941406
845.5198974609375,763.2708740234375,-42.96881866455078,1007.8140869140624,167.96900939941406
845.5198974609375,763.2708740234375,-39.06256103515625,1007.8140869140624,167.96900939941406
845.5198974609375,763.2708740234375,-39.06256103515625,1011.7203369140624,167.96900939941406
845.5198974609375,763.2708740234375,-46.87507247924805,1015.6265869140624,164.06275939941406
852.0997924804688,787.945556640625,-46.87507247924805,1015.6265869140624,164.06275939941406
838.9400024414062,779.720703125,-50.78133010864258,1007.8140869140624,164.06275939941406
843.8749389648438,792.8805541992188,-50.78133010864258,1011.7203369140624,164.06275939941406
843.8749389648438,794.5255126953125,-42.96881866455078,1011.7203369140624,164.06275939941406
843.8749389648438,794.5255126953125,-46.87507247924805,1015.6265869140624,164.06275939941406
840.5849609375,783.0106201171875,-46.87507247924805,1015.6265869140624,164.06275939941406
840.5849609375,783.0106201171875,-35.15630340576172,1003.9078369140624,152.343994140625
850.454833984375,806.0403442382812,-35.15630340576172,1003.9078369140624,148.43772888183594
843.8749389648438,801.1054077148438,-35.15630340576172,1007.8140869140624,152.343994140625
847.1648559570312,802.7504272460938,-39.06256103515625,1007.8140869140624,152.343994140625
847.1648559570312,802.7504272460938,-35.15630340576172,1011.7203369140624,156.250244140625
842.2299194335938,797.8154907226562,-31.25004959106445,1015.6265869140624,156.250244140625
843.8749389648438,789.590576171875,-31.25004959106445,1015.6265869140624,156.250244140625
842.2299194335938,778.07568359375,-31.25004959106445,1015.6265869140624,156.250244140625
847.1648559570312,801.1054077148438,-42.96881866455078,1015.6265869140624,144.53147888183594
847.1648559570312,801.1054077148438,-39.06256103515625,1011.7203369140624,144.53147888183594
848.8098754882812,787.945556640625,-39.06256103515625,1011.7203369140624,144.53147888183594
830.715087890625,766.5608520507812,-35.15630340576172,1011.7203369140624,144.53147888183594
830.715087890625,778.07568359375,-27.343791961669922,1019.5328369140624,144.53147888183594
838.9400024414062,802.7504272460938,-23.437536239624023,1011.7203369140624,144.53147888183594
843.8749389648438,804.3953857421875,-23.437536239624023,1011.7203369140624,144.53147888183594
850.454833984375,824.1351318359375,-35.15630340576172,1007.8140869140624,136.71896362304688
850.454833984375,824.1351318359375,-35.15630340576172,1007.8140869140624,140.62521362304688
850.454833984375,824.1351318359375,-35.15630340576172,1011.7203369140624,148.43772888183594
842.2299194335938,807.6853637695312,-35.15630340576172,1011.7203369140624,148.43772888183594
840.5849609375,804.3953857421875,-35.15630340576172,1023.4390869140624,148.43772888183594
840.5849609375,804.3953857421875,-39.06256103515625,1019.5328369140624,148.43772888183594
840.5849609375,804.3953857421875,-39.06256103515625,1011.7203369140624,152.343994140625
834.0050048828125,784.6556396484375,-39.06256103515625,1011.7203369140624,152.343994140625
840.5849609375,783.0106201171875,-42.96881866455078,1007.8140869140624,148.43772888183594
840.5849609375,783.0106201171875,-39.06256103515625,1007.8140869140624,152.343994140625
837.2949829101562,794.5255126953125,-27.343791961669922,1019.5328369140624,167.96900939941406
843.8749389648438,797.8154907226562,-31.25004959106445,1015.6265869140624,167.96900939941406
843.8749389648438,797.8154907226562,-31.25004959106445,1011.7203369140624,171.87527465820312
843.8749389648438,797.8154907226562,-27.343791961669922,1011.7203369140624,171.87527465820312
843.8749389648438,806.0403442382812,-27.343791961669922,1011.7203369140624,171.87527465820312
842.2299194335938,799.46044921875,-27.343791961669922,1019.5328369140624,175.78152465820312
842.2299194335938,799.46044921875,-27.343791961669922,1019.5328369140624,171.87527465820312
842.2299194335938,799.46044921875,-23.437536239624023,1015.6265869140624,171.87527465820312
840.5849609375,791.2355346679688,-27.343791961669922,1011.7203369140624,164.06275939941406
843.8749389648438,802.7504272460938,-31.25004959106445,1007.8140869140624,160.156494140625
845.5198974609375,791.2355346679688,-35.15630340576172,1019.5328369140624,156.250244140625
838.9400024414062,791.2355346679688,-27.343791961669922,1011.7203369140624,160.156494140625
838.9400024414062,791.2355346679688,-23.437536239624023,1011.7203369140624,160.156494140625
842.2299194335938,794.5255126953125,-23.437536239624023,1011.7203369140624,160.156494140625
830.715087890625,804.3953857421875,-39.06256103515625,1011.7203369140624,156.250244140625
830.715087890625,804.3953857421875,-35.15630340576172,1007.8140869140624,156.250244140625
830.715087890625,804.3953857421875,-31.25004959106445,1011.7203369140624,160.156494140625
834.0050048828125,797.8154907226562,-31.25004959106445,1011.7203369140624,160.156494140625
845.5198974609375,819.2001953125,-23.437536239624023,1011.7203369140624,156.250244140625
829.070068359375,804.3953857421875,-23.437536239624023,1015.6265869140624,156.250244140625
834.0050048828125,807.6853637695312,-27.343791961669922,1011.7203369140624,156.250244140625
834.0050048828125,807.6853637695312,-27.343791961669922,1011.7203369140624,152.343994140625
834.0050048828125,807.6853637695312,-31.25004959106445,1007.8140869140624,152.343994140625
834.0050048828125,807.6853637695312,-35.15630340576172,1011.7203369140624,152.343994140625
830.715087890625,812.6203002929688,-35.15630340576172,1011.7203369140624,152.343994140625
824.1351318359375,792.8805541992188,-35.15630340576172,1011.7203369140624,152.343994140625
824.1351318359375,792.8805541992188,-27.343791961669922,1011.7203369140624,160.156494140625
824.1351318359375,792.8805541992188,-27.343791961669922,1011.7203369140624,156.250244140625
824.1351318359375,789.590576171875,-27.343791961669922,1011.7203369140624,156.250244140625
842.2299194335938,822.4901733398438,-31.25004959106445,1007.8140869140624,160.156494140625
848.8098754882812,804.3953857421875,-31.25004959106445,1011.7203369140624,164.06275939941406
847.1648559570312,796.1704711914062,-31.25004959106445,1015.6265869140624,160.156494140625
843.8749389648438,784.6556396484375,-35.15630340576172,1015.6265869140624,160.156494140625
848.8098754882812,807.6853637695312,-27.343791961669922,1011.7203369140624,156.250244140625
848.8098754882812,807.6853637695312,-27.343791961669922,1015.6265869140624,152.343994140625
840.5849609375,796.1704711914062,-27.343791961669922,1015.6265869140624,152.343994140625
837.2949829101562,797.8154907226562,-31.25004959106445,1011.7203369140624,156.250244140625
843.8749389648438,810.9752807617188,-35.15630340576172,1011.7203369140624,152.343994140625
837.2949829101562,797.8154907226562,-27.343791961669922,1011.7203369140624,156.250244140625
842.2299194335938,809.330322265625,-23.437536239624023,1015.6265869140624,160.156494140625
847.1648559570312,812.6203002929688,-35.15630340576172,1015.6265869140624,156.250244140625
840.5849609375,799.46044921875,-27.343791961669922,1011.7203369140624,156.250244140625
840.5849609375,799.46044921875,-23.437536239624023,1015.6265869140624,156.250244140625
842.2299194335938,789.590576171875,-23.437536239624023,1011.7203369140624,156.250244140625
842.2299194335938,789.590576171875,-27.343791961669922,1015.6265869140624,152.343994140625
842.2299194335938,789.590576171875,-31.25004959106445,1011.7203369140624,152.343994140625
842.2299194335938,792.8805541992188,-31.25004959106445,1011.7203369140624,148.43772888183594
838.9400024414062,797.8154907226562,-31.25004959106445,1011.7203369140624,144.53147888183594
843.8749389648438,794.5255126953125,-23.437536239624023,1011.7203369140624,148.43772888183594
837.2949829101562,783.0106201171875,-39.06256103515625,1015.6265869140624,156.250244140625
850.454833984375,809.330322265625,-35.15630340576172,1011.7203369140624,160.156494140625
850.454833984375,809.330322265625,-31.25004959106445,1015.6265869140624,164.06275939941406
840.5849609375,784.6556396484375,-31.25004959106445,1015.6265869140624,164.06275939941406
848.8098754882812,809.330322265625,-31.25004959106445,1011.7203369140624,156.250244140625
837.2949829101562,794.5255126953125,-35.15630340576172,1019.5328369140624,152.343994140625
837.2949829101562,794.5255126953125,-27.343791961669922,1007.8140869140624,156.250244140625
837.2949829101562,794.5255126953125,-23.437536239624023,1011.7203369140624,160.156494140625
837.2949829101562,796.1704711914062,-27.343791961669922,1019.5328369140624,156.250244140625
842.2299194335938,810.9752807617188,-31.25004959106445,1011.7203369140624,160.156494140625
834.0050048828125,794.5255126953125,-31.25004959106445,1011.7203369140624,160.156494140625
838.9400024414062,802.7504272460938,-35.15630340576172,1011.7203369140624,156.250244140625
830.715087890625,791.2355346679688,-31.25004959106445,1007.8140869140624,152.343994140625
835.6500244140625,801.1054077148438,-27.343791961669922,1011.7203369140624,152.343994140625
840.5849609375,801.1054077148438,-31.25004959106445,1011.7203369140624,156.250244140625
842.2299194335938,814.2652587890625,-27.343791961669922,1011.7203369140624,160.156494140625
838.9400024414062,806.0403442382812,-31.25004959106445,1007.8140869140624,152.343994140625
837.2949829101562,812.6203002929688,-31.25004959106445,1007.8140869140624,152.343994140625
832.3600463867188,797.8154907226562,-31.25004959106445,1015.6265869140624,160.156494140625
838.9400024414062,802.7504272460938,-39.06256103515625,1015.6265869140624,160.156494140625
852.0997924804688,812.6203002929688,-39.06256103515625,1015.6265869140624,160.156494140625
855.3897705078125,837.2949829101562,-27.343791961669922,1011.7203369140624,156.250244140625
842.2299194335938,807.6853637695312,-35.15630340576172,1015.6265869140624,156.250244140625
842.2299194335938,807.6853637695312,-35.15630340576172,1015.6265869140624,160.156494140625
840.5849609375,794.5255126953125,-35.15630340576172,1011.7203369140624,156.250244140625
843.8749389648438,796.1704711914062,-23.437536239624023,1011.7203369140624,156.250244140625
850.454833984375,830.715087890625,-23.437536239624023,1011.7203369140624,156.250244140625
848.8098754882812,824.1351318359375,-27.343791961669922,1015.6265869140624,156.250244140625
840.5849609375,817.5552368164062,-39.06256103515625,1015.6265869140624,152.343994140625
838.9400024414062,810.9752807617188,-39.06256103515625,1015.6265869140624,152.343994140625
847.1648559570312,835.6500244140625,-27.343791961669922,1003.9078369140624,160.156494140625
847.1648559570312,835.6500244140625,-27.343791961669922,1019.5328369140624,160.156494140625
840.5849609375,825.7801513671875,-31.25004959106445,1015.6265869140624,160.156494140625
830.715087890625,829.070068359375,-39.06256103515625,1011.7203369140624,156.250244140625
830.715087890625,829.070068359375,-31.25004959106445,1015.6265869140624,160.156494140625
835.6500244140625,837.2949829101562,-27.343791961669922,1011.7203369140624,160.156494140625
835.6500244140625,814.2652587890625,-27.343791961669922,1011.7203369140624,156.250244140625
834.0050048828125,820.84521484375,-31.25004959106445,1011.7203369140624,156.250244140625
837.2949829101562,810.9752807617188,-35.15630340576172,1019.5328369140624,156.250244140625
837.2949829101562,810.9752807617188,-31.25004959106445,1003.9078369140624,160.156494140625
834.0050048828125,820.84521484375,-31.25004959106445,1003.9078369140624,160.156494140625
845.5198974609375,815.9102783203125,-31.25004959106445,1011.7203369140624,164.06275939941406
845.5198974609375,815.9102783203125,-31.25004959106445,1015.6265869140624,160.156494140625
843.8749389648438,819.2001953125,-31.25004959106445,1015.6265869140624,160.156494140625
835.6500244140625,814.2652587890625,-27.343791961669922,1015.6265869140624,160.156494140625
838.9400024414062,806.0403442382812,-27.343791961669922,1011.7203369140624,164.06275939941406
838.9400024414062,806.0403442382812,-27.343791961669922,1015.6265869140624,164.06275939941406
837.2949829101562,796.1704711914062,-31.25004959106445,1011.7203369140624,160.156494140625
842.2299194335938,804.3953857421875,-31.25004959106445,1011.7203369140624,160.156494140625
827.4251098632812,802.7504272460938,-31.25004959106445,1011.7203369140624,160.156494140625
832.3600463867188,820.84521484375,-27.343791961669922,1011.7203369140624,160.156494140625
832.3600463867188,820.84521484375,-31.25004959106445,1011.7203369140624,160.156494140625
830.715087890625,801.1054077148438,-35.15630340576172,1019.5328369140624,160.156494140625
830.715087890625,801.1054077148438,-35.15630340576172,1007.8140869140624,160.156494140625
830.715087890625,801.1054077148438,-27.343791961669922,1007.8140869140624,164.06275939941406
830.715087890625,801.1054077148438,-35.15630340576172,1015.6265869140624,164.06275939941406
843.8749389648438,832.3600463867188,-35.15630340576172,1015.6265869140624,164.06275939941406
838.9400024414062,806.0403442382812,-35.15630340576172,1015.6265869140624,160.156494140625
840.5849609375,822.4901733398438,-31.25004959106445,1011.7203369140624,160.156494140625
829.070068359375,792.8805541992188,-31.25004959106445,1011.7203369140624,164.06275939941406
829.070068359375,792.8805541992188,-31.25004959106445,1015.6265869140624,164.06275939941406
840.5849609375,817.5552368164062,-35.15630340576172,1011.7203369140624,164.06275939941406
830.715087890625,804.3953857421875,-35.15630340576172,1011.7203369140624,164.06275939941406
830.715087890625,804.3953857421875,-31.25004959106445,1011.7203369140624,164.06275939941406
824.1351318359375,812.6203002929688,-31.25004959106445,1011.7203369140624,164.06275939941406
832.3600463867188,820.84521484375,-35.15630340576172,1015.6265869140624,160.156494140625
832.3600463867188,820.84521484375,-39.06256103515625,1015.6265869140624,156.250244140625
837.2949829101562,827.4251098632812,-27.343791961669922,1015.6265869140624,164.06275939941406
837.2949829101562,827.4251098632812,-27.343791961669922,1011.7203369140624,164.06275939941406
829.070068359375,796.1704711914062,-35.15630340576172,1011.7203369140624,164.06275939941406
829.070068359375,796.1704711914062,-39.06256103515625,1011.7203369140624,160.156494140625
848.8098754882812,827.4251098632812,-31.25004959106445,1011.7203369140624,160.156494140625
848.8098754882812,827.4251098632812,-27.343791961669922,1011.7203369140624,164.06275939941406
838.9400024414062,789.590576171875,-27.343791961669922,1011.7203369140624,164.06275939941406
838.9400024414062,789.590576171875,-35.15630340576172,1011.7203369140624,160.156494140625
845.5198974609375,834.0050048828125,-31.25004959106445,1011.7203369140624,160.156494140625
838.9400024414062,815.9102783203125,-31.25004959106445,1011.7203369140624,164.06275939941406
838.9400024414062,815.9102783203125,-31.25004959106445,1007.8140869140624,164.06275939941406
825.7801513671875,783.0106201171875,-35.15630340576172,1011.7203369140624,164.06275939941406
837.2949829101562,799.46044921875,-27.343791961669922,1011.7203369140624,164.06275939941406
837.2949829101562,799.46044921875,-31.25004959106445,1011.7203369140624,164.06275939941406
845.5198974609375,802.7504272460938,-39.06256103515625,1011.7203369140624,160.156494140625
845.5198974609375,802.7504272460938,-31.25004959106445,1007.8140869140624,160.156494140625
843.8749389648438,784.6556396484375,-31.25004959106445,1007.8140869140624,160.156494140625
852.0997924804688,802.7504272460938,-27.343791961669922,1011.7203369140624,160.156494140625
853.7448120117188,806.0403442382812,-31.25004959106445,1015.6265869140624,160.156494140625
853.7448120117188,822.4901733398438,-35.15630340576172,1007.8140869140624,160.156494140625
834.0050048828125,789.590576171875,-35.15630340576172,1007.8140869140624,160.156494140625
845.5198974609375,817.5552368164062,-27.343791961669922,1011.7203369140624,164.06275939941406
840.5849609375,810.9752807617188,-31.25004959106445,1011.7203369140624,160.156494140625
842.2299194335938,814.2652587890625,-35.15630340576172,1011.7203369140624,160.156494140625
842.2299194335938,825.7801513671875,-31.25004959106445,1003.9078369140624,160.156494140625
850.454833984375,817.5552368164062,-31.25004959106445,1015.6265869140624,160.156494140625
850.454833984375,817.5552368164062,-27.343791961669922,1011.7203369140624,160.156494140625
842.2299194335938,829.070068359375,-31.25004959106445,1011.7203369140624,160.156494140625
837.2949829101562,792.8805541992188,-27.343791961669922,1007.8140869140624,160.156494140625
843.8749389648438,797.8154907226562,-27.343791961669922,1011.7203369140624,160.156494140625
857.0347290039062,786.3005981445312,-31.25004959106445,1011.7203369140624,160.156494140625
855.3897705078125,763.2708740234375,-31.25004959106445,1011.7203369140624,156.250244140625
855.3897705078125,786.3005981445312,-31.25004959106445,1011.7203369140624,156.250244140625
850.454833984375,773.1407470703125,-27.343791961669922,1011.7203369140624,160.156494140625
845.5198974609375,804.3953857421875,-27.343791961669922,1011.7203369140624,160.156494140625
843.8749389648438,789.590576171875,-31.25004959106445,1011.7203369140624,160.156494140625
840.5849609375,789.590576171875,-31.25004959106445,1011.7203369140624,160.156494140625
843.8749389648438,799.46044921875,-35.15630340576172,1015.6265869140624,156.250244140625
843.8749389648438,799.46044921875,-31.25004959106445,1015.6265869140624,156.250244140625
860.32470703125,830.715087890625,-31.25004959106445,1011.7203369140624,156.250244140625
845.5198974609375,804.3953857421875,-27.343791961669922,1015.6265869140624,160.156494140625
843.8749389648438,806.0403442382812,-31.25004959106445,1015.6265869140624,160.156494140625
847.1648559570312,837.2949829101562,-31.25004959106445,1011.7203369140624,160.156494140625
838.9400024414062,814.2652587890625,-31.25004959106445,1015.6265869140624,156.250244140625
842.2299194335938,809.330322265625,-23.437536239624023,1000.0015869140624,160.156494140625
842.2299194335938,809.330322265625,-23.437536239624023,1011.7203369140624,160.156494140625
842.2299194335938,809.330322265625,-23.437536239624023,1015.6265869140624,156.250244140625
832.3600463867188,801.1054077148438,-23.437536239624023,1015.6265869140624,156.250244140625
827.4251098632812,807.6853637695312,-23.437536239624023,1011.7203369140624,156.250244140625
827.4251098632812,807.6853637695312,-27.343791961669922,1011.7203369140624,156.250244140625
845.5198974609375,832.3600463867188,-31.25004959106445,1011.7203369140624,156.250244140625
829.070068359375,815.9102783203125,-39.06256103515625,1015.6265869140624,156.250244140625
829.070068359375,815.9102783203125,-27.343791961669922,1007.8140869140624,152.343994140625
832.3600463867188,810.9752807617188,-27.343791961669922,1007.8140869140624,152.343994140625
850.454833984375,822.4901733398438,-27.343791961669922,1007.8140869140624,152.343994140625
843.8749389648438,804.3953857421875,-27.343791961669922,1015.6265869140624,160.156494140625
855.3897705078125,843.8749389648438,-27.343791961669922,1015.6265869140624,160.156494140625
852.0997924804688,812.6203002929688,-35.15630340576172,1011.7203369140624,156.250244140625
855.3897705078125,815.9102783203125,-35.15630340576172,1011.7203369140624,156.250244140625
842.2299194335938,809.330322265625,-31.25004959106445,1011.7203369140624,160.156494140625
840.5849609375,799.46044921875,-31.25004959106445,1011.7203369140624,156.250244140625
